Merged spectral data

 274.41;-0.00373
 275.01; 0.00013
 275.61; 0.00233
 276.22; 0.00041
 276.82;-0.00113
 277.42;-0.00259
 278.03;-0.00152
 278.63;-0.00024
 279.24;-0.00040
 279.84;-0.00076
 280.44; 0.00079
 281.05; 0.00227
 281.65; 0.00284
 282.25; 0.00206
 282.86; 0.00266
 283.46; 0.00235
 284.06; 0.00262
 284.67; 0.00275
 285.27; 0.00218
 285.87; 0.00174
 286.48; 0.00016
 287.08; 0.00156
 287.68; 0.00208
 288.29; 0.00152
 288.89; 0.00089
 289.49; 0.00011
 290.10; 0.00259
 290.70; 0.00345
 291.30; 0.00532
 291.91; 0.00560
 292.51; 0.00566
 293.11; 0.00165
 293.72; 0.00095
 294.32; 0.00230
 294.92; 0.00493
 295.52; 0.00369
 296.13; 0.00198
 296.73; 0.00297
 297.33; 0.00219
 297.94; 0.00414
 298.54; 0.00533
 299.14; 0.00353
 299.74; 0.00221
 300.35;-0.00081
 300.95; 0.00000
 301.55; 0.00012
 302.15; 0.00143
 302.76; 0.00178
 303.36; 0.00371
 303.96; 0.00463
 304.56; 0.00553
 305.17; 0.00360
 305.77; 0.00602
 306.37; 0.00837
 306.97; 0.00668
 307.58; 0.00613
 308.18; 0.00997
 308.78; 0.01093
 309.38; 0.01184
 309.98; 0.00518
 310.59; 0.00559
 311.19; 0.00437
 311.79; 0.00838
 312.39; 0.00772
 313.00; 0.01001
 313.60; 0.00445
 314.20; 0.00892
 314.80; 0.00309
 315.40; 0.01248
 316.01; 0.00807
 316.61; 0.01419
 317.21; 0.00930
 317.81; 0.00770
 318.41; 0.00587
 319.01; 0.00491
 319.62; 0.00885
 320.22; 0.00913
 320.82; 0.01123
 321.42; 0.00949
 322.02; 0.00633
 322.62; 0.00115
 323.23; 0.00089
 323.83; 0.00767
 324.43; 0.01491
 325.03; 0.01793
 325.63; 0.01470
 326.23; 0.00815
 326.83; 0.00140
 327.44;-0.00758
 328.04;-0.00285
 328.64; 0.01044
 329.24; 0.01716
 329.84; 0.00853
 330.44; 0.00031
 331.04; 0.00463
 331.64; 0.01175
 332.24; 0.01718
 332.85; 0.02658
 333.45; 0.02601
 334.05; 0.01622
 334.65;-0.00326
 335.25;-0.00709
 335.85; 0.00472
 336.45; 0.00644
 337.05; 0.01067
 337.65; 0.00756
 338.25; 0.02064
 338.85; 0.01591
 339.46; 0.00852
 340.06;-0.00461
 340.66; 0.00847
 341.26; 0.01307
 341.86; 0.02725
 342.46; 0.00688
 343.06; 0.00483
 343.66;-0.00956
 344.26; 0.00405
 344.86; 0.01023
 345.46; 0.01136
 346.06; 0.01796
 346.66; 0.02090
 347.26; 0.02085
 347.86; 0.01931
 348.46; 0.02168
 349.06; 0.02299
 349.66; 0.01906
 350.26; 0.02434
 350.86; 0.02255
 351.46; 0.03996
 352.06; 0.03408
 352.66; 0.03929
 353.26; 0.01975
 353.86; 0.02731
 354.46; 0.00986
 355.06; 0.01466
 355.66; 0.00124
 356.26; 0.01434
 356.86; 0.01464
 357.46; 0.00954
 358.06; 0.01300
 358.66; 0.01069
 359.26; 0.01117
 359.86; 0.00218
 360.46; 0.01403
 361.06; 0.00925
 361.66; 0.00852
 362.26; 0.00396
 362.86; 0.01394
 363.46; 0.02504
 364.06; 0.01736
 364.66; 0.02621
 365.26; 0.03285
 365.86; 0.02980
 366.46; 0.01290
 367.06; 0.00481
 367.66; 0.01278
 368.25; 0.01885
 368.85; 0.01261
 369.45; 0.00302
 370.05;-0.00045
 370.65; 0.01973
 371.25; 0.03426
 371.85; 0.03532
 372.45; 0.02210
 373.05; 0.02413
 373.65; 0.02464
 374.25; 0.03517
 374.84; 0.03555
 375.44; 0.04836
 376.04; 0.04760
 376.64; 0.03652
 377.24; 0.03586
 377.84; 0.02954
 378.44; 0.03565
 379.04; 0.02870
 379.63; 0.02942
 380.23; 0.03550
 380.83; 0.02742
 381.43; 0.02529
 382.03; 0.01185
 382.63; 0.01847
 383.23; 0.01639
 383.82; 0.02371
 384.42; 0.02256
 385.02; 0.02413
 385.62; 0.02215
 386.22; 0.02196
 386.82; 0.01730
 387.41; 0.02344
 388.01; 0.02371
 388.61; 0.02976
 389.21; 0.02346
 389.81; 0.02550
 390.41; 0.02501
 391.00; 0.02529
 391.60; 0.02203
 392.20; 0.01686
 392.80; 0.02055
 393.40; 0.02210
 393.99; 0.02712
 394.59; 0.02317
 395.19; 0.02153
 395.79; 0.02680
 396.39; 0.02818
 396.98; 0.02817
 397.58; 0.02194
 398.18; 0.02301
 398.78; 0.02497
 399.37; 0.03195
 399.97; 0.03835
 400.57; 0.04718
 401.17; 0.03976
 401.76; 0.04314
 402.36; 0.03716
 402.96; 0.04348
 403.56; 0.03633
 404.15; 0.03625
 404.75; 0.03261
 405.35; 0.03282
 405.95; 0.03524
 406.54; 0.03746
 407.14; 0.04073
 407.74; 0.03599
 408.33; 0.03699
 408.93; 0.03861
 409.53; 0.04038
 410.13; 0.03939
 410.72; 0.03195
 411.32; 0.03282
 411.92; 0.02996
 412.51; 0.03964
 413.11; 0.03968
 413.71; 0.04352
 414.30; 0.04688
 414.90; 0.05455
 415.50; 0.05113
 416.09; 0.05010
 416.69; 0.04715
 417.29; 0.05526
 417.88; 0.05142
 418.48; 0.04960
 419.08; 0.04848
 419.67; 0.05363
 420.27; 0.05606
 420.87; 0.05806
 421.46; 0.05426
 422.06; 0.05239
 422.66; 0.04792
 423.25; 0.05612
 423.85; 0.06032
 424.45; 0.06324
 425.04; 0.05804
 425.64; 0.05767
 426.23; 0.06021
 426.83; 0.06364
 427.43; 0.06454
 428.02; 0.06464
 428.62; 0.06528
 429.22; 0.06925
 429.81; 0.07096
 430.41; 0.07035
 431.00; 0.07109
 431.60; 0.07501
 432.20; 0.07823
 432.79; 0.07475
 433.39; 0.07301
 433.98; 0.07167
 434.58; 0.07524
 435.17; 0.07602
 435.77; 0.07824
 436.37; 0.08085
 436.96; 0.07336
 437.56; 0.07259
 438.15; 0.07515
 438.75; 0.08694
 439.34; 0.09000
 439.94; 0.08851
 440.53; 0.08475
 441.13; 0.08435
 441.73; 0.08442
 442.32; 0.08483
 442.92; 0.08338
 443.51; 0.08665
 444.11; 0.08637
 444.70; 0.09124
 445.30; 0.08823
 445.89; 0.09391
 446.49; 0.09252
 447.08; 0.09622
 447.68; 0.09267
 448.27; 0.10042
 448.87; 0.10002
 449.46; 0.10131
 450.06; 0.09985
 450.65; 0.10268
 451.25; 0.10124
 451.84; 0.10085
 452.44; 0.10473
 453.03; 0.10970
 453.63; 0.11366
 454.22; 0.11259
 454.82; 0.11165
 455.41; 0.11270
 456.00; 0.11596
 456.60; 0.12180
 457.19; 0.12053
 457.79; 0.11828
 458.38; 0.11964
 458.98; 0.11992
 459.57; 0.12355
 460.17; 0.12694
 460.76; 0.13263
 461.35; 0.13245
 461.95; 0.13050
 462.54; 0.13393
 463.14; 0.13672
 463.73; 0.13962
 464.33; 0.13878
 464.92; 0.13860
 465.51; 0.13968
 466.11; 0.14302
 466.70; 0.14612
 467.30; 0.14483
 467.89; 0.14427
 468.48; 0.14556
 469.08; 0.15072
 469.67; 0.15368
 470.26; 0.15638
 470.86; 0.15525
 471.45; 0.15335
 472.05; 0.15627
 472.64; 0.16085
 473.23; 0.16680
 473.83; 0.16957
 474.42; 0.17281
 475.01; 0.17374
 475.61; 0.17155
 476.20; 0.17331
 476.79; 0.17679
 477.39; 0.17929
 477.98; 0.18002
 478.57; 0.18199
 479.17; 0.18738
 479.76; 0.18969
 480.35; 0.19088
 480.95; 0.19138
 481.54; 0.19223
 482.13; 0.19306
 482.73; 0.19666
 483.32; 0.19924
 483.91; 0.20408
 484.51; 0.20346
 485.10; 0.20672
 485.69; 0.20685
 486.29; 0.21023
 486.88; 0.21138
 487.47; 0.21452
 488.06; 0.21644
 488.66; 0.21985
 489.25; 0.22220
 489.84; 0.22642
 490.43; 0.22910
 491.03; 0.23203
 491.62; 0.23409
 492.21; 0.23696
 492.80; 0.23780
 493.40; 0.24062
 493.99; 0.24304
 494.58; 0.24679
 495.17; 0.24938
 495.77; 0.25243
 496.36; 0.25780
 496.95; 0.26070
 497.54; 0.26483
 498.14; 0.26648
 498.73; 0.27067
 499.32; 0.27354
 499.91; 0.27652
 500.51; 0.27948
 501.10; 0.28223
 501.69; 0.28593
 502.28; 0.28943
 502.87; 0.29394
 503.47; 0.29732
 504.06; 0.30235
 504.65; 0.30430
 505.24; 0.30573
 505.83; 0.30655
 506.42; 0.31056
 507.02; 0.31598
 507.61; 0.31956
 508.20; 0.32050
 508.79; 0.32487
 509.38; 0.32839
 509.97; 0.33459
 510.57; 0.33575
 511.16; 0.33807
 511.75; 0.34035
 512.34; 0.34389
 512.93; 0.34833
 513.52; 0.35313
 514.11; 0.35722
 514.71; 0.36318
 515.30; 0.36858
 515.89; 0.37338
 516.48; 0.37424
 517.07; 0.37574
 517.66; 0.37837
 518.25; 0.38280
 518.84; 0.38570
 519.43; 0.38922
 520.03; 0.39280
 520.62; 0.39876
 521.21; 0.40233
 521.80; 0.40599
 522.39; 0.40775
 522.98; 0.41248
 523.57; 0.41637
 524.16; 0.42163
 524.75; 0.42687
 525.34; 0.43264
 525.93; 0.43704
 526.52; 0.44147
 527.12; 0.44496
 527.71; 0.45009
 528.30; 0.45361
 528.89; 0.45782
 529.48; 0.46199
 530.07; 0.46479
 530.66; 0.46808
 531.25; 0.47267
 531.84; 0.48077
 532.43; 0.48855
 533.02; 0.49242
 533.61; 0.49511
 534.20; 0.49742
 534.79; 0.50245
 535.38; 0.50740
 535.97; 0.51261
 536.56; 0.51677
 537.15; 0.52182
 537.74; 0.52561
 538.33; 0.53166
 538.92; 0.53766
 539.51; 0.54504
 540.10; 0.54806
 540.69; 0.55193
 541.28; 0.55519
 541.87; 0.56188
 542.46; 0.56686
 543.05; 0.57276
 543.64; 0.57865
 544.23; 0.58454
 544.82; 0.59082
 545.41; 0.59465
 546.00; 0.59922
 546.59; 0.60417
 547.17; 0.61034
 547.76; 0.61697
 548.35; 0.62166
 548.94; 0.62810
 549.53; 0.63264
 550.12; 0.63812
 550.71; 0.64354
 551.30; 0.64888
 551.89; 0.65425
 552.48; 0.66047
 553.07; 0.66601
 553.66; 0.67435
 554.24; 0.67943
 554.83; 0.68610
 555.42; 0.68987
 556.01; 0.69766
 556.60; 0.70345
 557.19; 0.70871
 557.78; 0.71065
 558.37; 0.71509
 558.96; 0.72103
 559.54; 0.72746
 560.13; 0.73482
 560.72; 0.74291
 561.31; 0.74941
 561.90; 0.75525
 562.49; 0.76145
 563.08; 0.77028
 563.66; 0.77648
 564.25; 0.78399
 564.84; 0.78871
 565.43; 0.79563
 566.02; 0.80175
 566.61; 0.80922
 567.19; 0.81725
 567.78; 0.82185
 568.37; 0.82971
 568.96; 0.83607
 569.55; 0.84318
 570.13; 0.84714
 570.72; 0.85155
 571.31; 0.85851
 571.90; 0.86679
 572.49; 0.87325
 573.07; 0.88002
 573.66; 0.88651
 574.25; 0.89613
 574.84; 0.90349
 575.43; 0.91077
 576.01; 0.91839
 576.60; 0.92513
 577.19; 0.93423
 577.78; 0.94230
 578.36; 0.95183
 578.95; 0.95886
 579.54; 0.96519
 580.13; 0.97300
 580.71; 0.97972
 581.30; 0.98501
 581.89; 0.99230
 582.48; 1.00018
 583.06; 1.00915
 583.65; 1.01475
 584.24; 1.02156
 584.82; 1.03005
 585.41; 1.03849
 586.00; 1.04811
 586.59; 1.05753
 587.17; 1.06501
 587.76; 1.07053
 588.35; 1.07649
 588.93; 1.08541
 589.52; 1.09389
 590.11; 1.10370
 590.69; 1.11082
 591.28; 1.11847
 591.87; 1.12549
 592.45; 1.13583
 593.04; 1.14435
 593.63; 1.15352
 594.21; 1.16203
 594.80; 1.17007
 595.39; 1.17683
 595.97; 1.18408
 596.56; 1.19348
 597.15; 1.20338
 597.73; 1.20883
 598.32; 1.21798
 598.91; 1.22565
 599.49; 1.23633
 600.08; 1.24430
 600.66; 1.25122
 601.25; 1.26209
 601.84; 1.27262
 602.42; 1.28270
 603.01; 1.28874
 603.60; 1.29548
 604.18; 1.30661
 604.77; 1.31824
 605.35; 1.32838
 605.94; 1.33513
 606.53; 1.34428
 607.11; 1.35263
 607.70; 1.36228
 608.28; 1.36780
 608.87; 1.37675
 609.45; 1.38523
 610.04; 1.39488
 610.63; 1.40417
 611.21; 1.41348
 611.80; 1.42306
 612.38; 1.43312
 612.97; 1.44362
 613.55; 1.45640
 614.14; 1.46412
 614.72; 1.47491
 615.31; 1.48156
 615.89; 1.49240
 616.48; 1.49723
 617.06; 1.50879
 617.65; 1.51865
 618.23; 1.53211
 618.82; 1.53809
 619.40; 1.54995
 619.99; 1.55735
 620.57; 1.57066
 621.16; 1.57905
 621.74; 1.59052
 622.33; 1.59884
 622.91; 1.60588
 623.50; 1.61543
 624.08; 1.62423
 624.67; 1.63685
 625.25; 1.65067
 625.84; 1.66123
 626.42; 1.67031
 627.01; 1.67913
 627.59; 1.69279
 628.18; 1.70470
 628.76; 1.71531
 629.35; 1.72444
 629.93; 1.73590
 630.51; 1.74653
 631.10; 1.75680
 631.68; 1.76629
 632.27; 1.77759
 632.85; 1.78883
 633.44; 1.79846
 634.02; 1.80695
 634.60; 1.82174
 635.19; 1.83555
 635.77; 1.84520
 636.36; 1.84939
 636.94; 1.85775
 637.52; 1.86882
 638.11; 1.88094
 638.69; 1.89383
 639.28; 1.90320
 639.86; 1.91381
 640.44; 1.92126
 641.03; 1.93792
 641.61; 1.94830
 642.19; 1.96061
 642.78; 1.96779
 643.36; 1.98109
 643.94; 1.99261
 644.53; 2.00580
 645.11; 2.02004
 645.70; 2.03219
 646.28; 2.04256
 646.86; 2.05310
 647.45; 2.06858
 648.03; 2.08416
 648.61; 2.09745
 649.19; 2.10493
 649.78; 2.11838
 650.36; 2.12809
 650.94; 2.14419
 651.53; 2.15210
 652.11; 2.16429
 652.69; 2.17660
 653.28; 2.18994
 653.86; 2.20442
 654.44; 2.21248
 655.02; 2.21815
 655.61; 2.22747
 656.19; 2.24168
 656.77; 2.26107
 657.36; 2.27301
 657.94; 2.28248
 658.52; 2.29521
 659.10; 2.31011
 659.69; 2.32358
 660.27; 2.33466
 660.85; 2.34703
 661.43; 2.36100
 662.02; 2.37869
 662.60; 2.39129
 663.18; 2.40895
 663.76; 2.42109
 664.35; 2.43560
 664.93; 2.45140
 665.51; 2.46590
 666.09; 2.48388
 666.67; 2.49774
 667.26; 2.50999
 667.84; 2.52406
 668.42; 2.53659
 669.00; 2.55000
 669.58; 2.55744
 670.17; 2.57112
 670.75; 2.58302
 671.33; 2.60187
 671.91; 2.61210
 672.49; 2.62905
 673.07; 2.63709
 673.66; 2.64984
 674.24; 2.66074
 674.82; 2.67220
 675.40; 2.68605
 675.98; 2.69843
 676.56; 2.71512
 677.15; 2.72854
 677.73; 2.74243
 678.31; 2.75595
 678.89; 2.77202
 679.47; 2.78394
 680.05; 2.79425
 680.63; 2.79970
 681.21; 2.81308
 681.80; 2.82896
 682.38; 2.84586
 682.96; 2.86114
 683.54; 2.87180
 684.12; 2.88985
 684.70; 2.90352
 685.28; 2.91649
 685.86; 2.92833
 686.44; 2.94638
 687.02; 2.96280
 687.60; 2.97962
 688.19; 2.99501
 688.77; 3.01642
 689.35; 3.02732
 689.93; 3.03313
 690.51; 3.04429
 691.09; 3.06522
 691.67; 3.08245
 692.25; 3.09358
 692.83; 3.10641
 693.41; 3.12269
 693.99; 3.13726
 694.57; 3.15142
 695.15; 3.17406
 695.73; 3.19216
 696.31; 3.20943
 696.89; 3.21747
 697.47; 3.22717
 698.05; 3.23536
 698.63; 3.24840
 699.21; 3.26727
 699.79; 3.28549
 700.37; 3.30761
 700.95; 3.31844
 701.53; 3.33483
 702.11; 3.34400
 702.69; 3.36290
 703.27; 3.37742
 703.85; 3.39339
 704.43; 3.40263
 705.01; 3.41106
 705.59; 3.42660
 706.17; 3.44713
 706.75; 3.46626
 707.33; 3.47833
 707.91; 3.48878
 708.49; 3.50023
 709.07; 3.51899
 709.64; 3.54631
 710.22; 3.56113
 710.80; 3.57759
 711.38; 3.59155
 711.96; 3.60991
 712.54; 3.61708
 713.12; 3.62660
 713.70; 3.63816
 714.28; 3.65450
 714.86; 3.67254
 715.44; 3.69798
 716.01; 3.71568
 716.59; 3.72923
 717.17; 3.74539
 717.75; 3.76618
 718.33; 3.78119
 718.91; 3.78212
 719.49; 3.78239
 720.07; 3.79585
 720.64; 3.81821
 721.22; 3.84608
 721.80; 3.86596
 722.38; 3.87882
 722.96; 3.89279
 723.54; 3.90916
 724.12; 3.92376
 724.69; 3.93656
 725.27; 3.95328
 725.85; 3.96819
 726.43; 3.98615
 727.01; 4.00960
 727.58; 4.03738
 728.16; 4.05466
 728.74; 4.05789
 729.32; 4.07013
 729.90; 4.09584
 730.47; 4.11661
 731.05; 4.13628
 731.63; 4.14041
 732.21; 4.15822
 732.79; 4.16870
 733.36; 4.19012
 733.94; 4.20963
 734.52; 4.22058
 735.10; 4.23341
 735.67; 4.24457
 736.25; 4.26933
 736.83; 4.29094
 737.41; 4.31420
 737.98; 4.33060
 738.56; 4.34230
 739.14; 4.35606
 739.72; 4.36645
 740.29; 4.39458
 740.87; 4.40914
 741.45; 4.42441
 742.02; 4.43627
 742.60; 4.45876
 743.18; 4.48585
 743.76; 4.50439
 744.33; 4.51544
 744.91; 4.53801
 745.49; 4.55499
 746.06; 4.57157
 746.64; 4.58402
 747.22; 4.59700
 747.79; 4.61536
 748.37; 4.62732
 748.95; 4.64241
 749.52; 4.66455
 750.10; 4.68194
 750.68; 4.69955
 751.25; 4.70971
 751.83; 4.74218
 752.41; 4.76953
 752.98; 4.80103
 753.56; 4.81773
 754.14; 4.83074
 754.71; 4.83736
 755.29; 4.84382
 755.86; 4.85880
 756.44; 4.88746
 757.02; 4.89843
 757.59; 4.91551
 758.17; 4.91452
 758.75; 4.94646
 759.32; 4.95781
 759.90; 4.97334
 760.47; 4.98642
 761.05; 4.99894
 761.62; 5.02926
 762.20; 5.05266
 762.78; 5.08010
 763.35; 5.09749
 763.93; 5.10750
 764.50; 5.13006
 765.08; 5.14321
 765.65; 5.16595
 766.23; 5.18806
 766.81; 5.21162
 767.38; 5.22460
 767.96; 5.24386
 768.53; 5.26576
 769.11; 5.28847
 769.68; 5.29857
 770.26; 5.31369
 770.83; 5.33587
 771.41; 5.36343
 771.98; 5.37407
 772.56; 5.39450
 773.13; 5.43080
 773.71; 5.46024
 774.28; 5.47556
 774.86; 5.46951
 775.43; 5.48169
 776.01; 5.48814
 776.58; 5.50866
 777.16; 5.53432
 777.73; 5.55968
 778.31; 5.58483
 778.88; 5.60047
 779.46; 5.63118
 780.03; 5.64276
 780.61; 5.66678
 781.18; 5.67688
 781.75; 5.68982
 782.33; 5.70446
 782.90; 5.72259
 783.48; 5.75992
 784.05; 5.77527
 784.63; 5.79062
 785.20; 5.79289
 785.77; 5.81129
 786.35; 5.84261
 786.92; 5.87274
 787.50; 5.89370
 788.07; 5.89538
 788.64; 5.90900
 789.22; 5.93960
 789.79; 5.98842
 790.37; 6.02665
 790.94; 6.04411
 791.51; 6.03601
 792.09; 6.03887
 792.66; 6.06576
 793.23; 6.08869
 793.81; 6.12410
 794.38; 6.12545
 794.96; 6.15090
 795.53; 6.15577
 796.10; 6.18984
 796.68; 6.21358
 797.25; 6.22090
 797.82; 6.22180
 798.40; 6.22374
 798.97; 6.26231
 799.54; 6.30149
 800.12; 6.33933
 800.69; 6.36361
 801.26; 6.36693
 801.83; 6.38357
 802.41; 6.40253
 802.98; 6.42065
 803.55; 6.43333
 804.13; 6.44617
 804.70; 6.47423
 805.27; 6.49786
 805.84; 6.50288
 806.42; 6.51343
 806.99; 6.53247
 807.56; 6.55690
 808.14; 6.58789
 808.71; 6.61576
 809.28; 6.63675
 809.85; 6.64015
 810.43; 6.63076
 811.00; 6.65603
 811.57; 6.70189
 812.14; 6.75575
 812.71; 6.78148
 813.29; 6.78400
 813.86; 6.80310
 814.43; 6.82882
 815.00; 6.85115
 815.58; 6.85006
 816.15; 6.86729
 816.72; 6.88881
 817.29; 6.93111
 817.86; 6.94572
 818.44; 6.97716
 819.01; 6.99950
 819.58; 7.04533
 820.15; 7.06306
 820.72; 7.07351
 821.29; 7.07572
 821.87; 7.10480
 822.44; 7.12945
 823.01; 7.13860
 823.58; 7.15559
 824.15; 7.17829
 824.72; 7.20329
 825.29; 7.20173
 825.87; 7.20540
 826.44; 7.22127
 827.01; 7.24985
 827.58; 7.27505
 828.15; 7.29020
 828.72; 7.32056
 829.29; 7.33191
 829.86; 7.36768
 830.44; 7.36295
 831.01; 7.38507
 831.58; 7.39458
 832.15; 7.44653
 832.72; 7.46282
 833.29; 7.47395
 833.86; 7.48198
 834.43; 7.50874
 835.00; 7.54592
 835.57; 7.56121
 836.14; 7.57791
 836.71; 7.59034
 837.28; 7.60432
 837.86; 7.64459
 838.43; 7.65976
 839.00; 7.69526
 839.57; 7.70977
 840.14; 7.74473
 840.71; 7.75654
 841.28; 7.75320
 841.85; 7.74577
 842.42; 7.76132
 842.99; 7.79820
 843.56; 7.82257
 844.13; 7.85431
 844.70; 7.88682
 845.27; 7.90609
 845.84; 7.90921
 846.41; 7.90771
 846.98; 7.94288
 847.55; 7.99394
 848.12; 8.01751
 848.69; 8.01137
 849.26; 7.99657
 849.83; 8.02471
 850.40; 8.06350
 850.97; 8.09860
 851.53; 8.09972
 852.10; 8.12581
 852.67; 8.16233
 853.24; 8.20183
 853.81; 8.21353
 854.38; 8.21936
 854.95; 8.24183
 855.52; 8.24317
 856.09; 8.23189
 856.50; 8.23259
 856.66; 8.21876
 857.23; 8.86012
 857.80;10.55034
 858.37;13.26653
 858.93;17.01339
 859.50;21.76825
 860.07;27.54587
 860.64;34.37668
 860.80;36.41642
 861.21;36.18990
 861.78;35.03701
 862.35;32.87796
 862.92;29.70908
 863.48;25.56865
 864.05;20.43164
 864.62;14.33278
 865.08; 8.65567
 865.19; 8.65827
 865.76; 8.69348
 866.33; 8.70424
 866.90; 8.70257
 867.46; 8.70417
 868.03; 8.69612
 868.60; 8.72312
 869.17; 8.73176
 869.37; 8.74827
 869.74; 8.78612
 870.31; 8.79337
 870.87; 8.81686
 871.44; 8.81261
 872.01; 8.85042
 872.58; 8.88063
 873.15; 8.93195
 873.65; 8.92508
 873.71; 8.92523
 874.28; 8.91698
 874.85; 8.91842
 875.42; 8.95742
 875.98; 8.99370
 876.55; 9.03565
 877.12; 9.04496
 877.69; 9.06251
 877.93; 9.06743
 878.25; 9.06635
 878.82; 9.10886
 879.39; 9.15995
 879.96; 9.19119
 880.52; 9.18024
 881.09; 9.16762
 881.66; 9.14799
 882.20; 9.17363
 882.23; 9.17547
 882.79; 9.21421
 883.36; 9.26597
 883.93; 9.30874
 884.50; 9.34014
 885.06; 9.35487
 885.63; 9.37088
 886.20; 9.39053
 886.47; 9.39442
 886.76; 9.39383
 887.33; 9.41168
 887.90; 9.43773
 888.46; 9.47365
 889.03; 9.46507
 889.60; 9.47189
 890.16; 9.50716
 890.73; 9.57201
 890.74; 9.57300
 891.30; 9.61505
 891.86; 9.62618
 892.43; 9.63030
 893.00; 9.63269
 893.56; 9.66383
 894.13; 9.67518
 894.70; 9.70517
 895.01; 9.70035
 895.26; 9.69417
 895.83; 9.70773
 896.39; 9.70261
 896.96; 9.72002
 897.53; 9.74087
 898.09; 9.79539
 898.66; 9.81925
 899.22; 9.84192
 899.27; 9.84096
 899.79; 9.84399
 900.36; 9.88664
 900.92; 9.89736
 901.49; 9.92821
 902.05; 9.96733
 902.62;10.02117
 903.19;10.05378
 903.53;10.06200
 903.75;10.06306
 904.32;10.04971
 904.88;10.08164
 905.45;10.10746
 906.01;10.13433
 906.58;10.14467
 907.14;10.17277
 907.71;10.21971
 907.78;10.22291
 908.28;10.24331
 908.84;10.27041
 909.41;10.27810
 909.97;10.27643
 910.54;10.27653
 911.10;10.29883
 911.67;10.31735
 912.04;10.31349
 912.23;10.31424
 912.80;10.33865
 913.36;10.36896
 913.93;10.40555
 914.49;10.39283
 915.06;10.40048
 915.62;10.44548
 916.19;10.49456
 916.28;10.49787
 916.75;10.50822
 917.31;10.50261
 917.88;10.52704
 918.44;10.58484
 919.01;10.63326
 919.57;10.63221
 920.14;10.63528
 920.53;10.64420
 920.70;10.65226
 921.27;10.68470
 921.83;10.71923
 922.39;10.74921
 922.96;10.80244
 923.52;10.83143
 924.09;10.85798
 924.65;10.86261
 924.77;10.86748
 925.22;10.87076
 925.78;10.88796
 926.34;10.92199
 926.91;10.93634
 927.47;10.93322
 928.03;10.94539
 928.60;10.95237
 929.01;10.96635
 929.16;10.97295
 929.73;11.00824
 930.29;11.02926
 930.85;11.02162
 931.42;10.98654
 931.98;11.03264
 932.54;11.06907
 933.11;11.13533
 933.25;11.13973
 933.67;11.15263
 934.23;11.19331
 934.80;11.19683
 935.36;11.21722
 935.92;11.24928
 936.49;11.28571
 937.05;11.26460
 937.48;11.25663
 937.61;11.25495
 938.18;11.26360
 938.74;11.32164
 939.30;11.35087
 939.87;11.39469
 940.43;11.42738
 940.99;11.46599
 941.55;11.45207
 941.71;11.45026
 942.12;11.43955
 942.68;11.42651
 943.24;11.46584
 943.80;11.49347
 944.37;11.54560
 944.93;11.55566
 945.49;11.57550
 945.94;11.56690
 946.05;11.56585
 946.62;11.58486
 947.18;11.59462
 947.74;11.59486
 948.30;11.59294
 948.87;11.61117
 949.43;11.66351
 949.99;11.71244
 950.16;11.71916
 950.55;11.73476
 951.11;11.74242
 951.68;11.78453
 952.24;11.78694
 952.80;11.79644
 953.36;11.78219
 953.92;11.80414
 954.38;11.81717
 954.49;11.81979
 955.05;11.84530
 955.61;11.86139
 956.17;11.87343
 956.73;11.88475
 957.29;11.92200
 957.86;11.93785
 958.42;11.91772
 958.60;11.91737
 958.98;11.91707
 959.54;11.93419
 960.10;11.95513
 960.66;11.95623
 961.22;11.99982
 961.79;12.01817
 962.35;12.02829
 962.81;12.00943
 962.91;12.00655
 963.47;12.07604
 964.03;12.11416
 964.59;12.15170
 965.15;12.11870
 965.71;12.13053
 966.27;12.13795
 966.83;12.19242
 967.03;12.21032
 967.40;12.24204
 967.96;12.26297
 968.52;12.26665
 969.08;12.28596
 969.64;12.32881
 970.20;12.36832
 970.76;12.38060
 971.23;12.38310
 971.32;12.38329
 971.88;12.40985
 972.44;12.42637
 973.00;12.43279
 973.56;12.41678
 974.12;12.41539
 974.68;12.45041
 975.24;12.45952
 975.44;12.46085
 975.80;12.46360
 976.36;12.46281
 976.92;12.54019
 977.48;12.62255
 978.04;12.66637
 978.60;12.65670
 979.16;12.63332
 979.64;12.63617
 979.72;12.63651
 980.28;12.65882
 980.84;12.68909
 981.40;12.70697
 981.96;12.73133
 982.52;12.75332
 983.08;12.79788
 983.64;12.80576
 983.84;12.80665
 984.20;12.81020
 984.76;12.79125
 985.32;12.79322
 985.88;12.80121
 986.44;12.82170
 987.00;12.80455
 987.55;12.82719
 988.04;12.85473
 988.11;12.85883
 988.67;12.90021
 989.23;12.90042
 989.79;12.88058
 990.35;12.90026
 990.91;12.93690
 991.47;12.97894
 992.03;12.98293
 992.23;12.98890
 992.59;13.00035
 993.14;13.01045
 993.70;13.03670
 994.26;13.02772
 994.82;13.03918
 995.38;13.01618
 995.94;13.03994
 996.42;13.05275
 996.50;13.05478
 997.05;13.10436
 997.61;13.11887
 998.17;13.13565
 998.73;13.14284
 999.29;13.16667
 999.85;13.18617
1000.40;13.21043
1000.61;13.21270
1000.96;13.21622
1001.52;13.22911
1002.08;13.24707
1002.64;13.30376
1003.19;13.33811
1003.75;13.35555
1004.31;13.33297
1004.79;13.33881
1004.87;13.33979
1005.43;13.35504
1005.98;13.39831
1006.54;13.42749
1007.10;13.42875
1007.66;13.42133
1008.21;13.42531
1008.77;13.45958
1008.97;13.46445
1009.33;13.47359
1009.89;13.50710
1010.44;13.51588
1011.00;13.52544
1011.56;13.51793
1012.12;13.52043
1012.67;13.58117
1013.15;13.60777
1013.23;13.61218
1013.79;13.64001
1014.34;13.58689
1014.90;13.58281
1015.46;13.60004
1016.01;13.62794
1016.57;13.64099
1017.13;13.65405
1017.32;13.65690
1017.69;13.66308
1018.24;13.67336
1018.80;13.70448
1019.36;13.77724
1019.91;13.80395
1020.47;13.83398
1021.03;13.82492
1021.50;13.89046
1021.58;13.90239
1022.14;13.90575
1022.69;13.94226
1023.25;13.88918
1023.81;13.92498
1024.36;13.93168
1024.92;13.95627
1025.48;13.92243
1025.66;13.93149
1026.03;13.94898
1026.59;13.98345
1027.14;14.02856
1027.70;14.03066
1028.26;14.01449
1028.81;14.00918
1029.37;14.00456
1029.83;14.01298
1029.92;14.01438
1030.48;14.02199
1031.03;14.03020
1031.59;14.10169
1032.15;14.10808
1032.70;14.11682
1033.26;14.11542
1033.81;14.13659
1033.99;14.13815
1034.37;14.14119
1034.92;14.12476
1035.48;14.11496
1036.03;14.12047
1036.59;14.10735
1037.14;14.15561
1037.70;14.19068
1038.15;14.25611
1038.26;14.27095
1038.81;14.28838
1039.37;14.31710
1039.92;14.24130
1040.48;14.27903
1041.03;14.27104
1041.58;14.36781
1042.14;14.37192
1042.31;14.38097
1042.69;14.40125
1043.25;14.36146
1043.80;14.38358
1044.36;14.40791
1044.91;14.44349
1045.47;14.44252
1046.02;14.46709
1046.47;14.48720
1046.58;14.49189
1047.13;14.51920
1047.69;14.50705
1048.24;14.47948
1048.79;14.44896
1049.35;14.51720
1049.90;14.54714
1050.46;14.60394
1050.62;14.59446
1051.01;14.57248
1051.56;14.60826
1052.12;14.57120
1052.67;14.58962
1053.23;14.64374
1053.78;14.72195
1054.33;14.74803
1054.77;14.71846
1054.89;14.70995
1055.44;14.68075
1056.00;14.67211
1056.55;14.70668
1057.10;14.74612
1057.66;14.73762
1058.21;14.74566
1058.76;14.74194
1058.91;14.75305
1059.32;14.78566
1059.87;14.81197
1060.42;14.83608
1060.98;14.87746
1061.53;14.90787
1062.08;14.90353
1062.64;14.90918
1063.05;14.91105
1063.19;14.90985
1063.74;14.93353
1064.29;14.91740
1064.85;14.94533
1065.40;14.94585
1065.95;15.02568
1066.51;14.98927
1067.06;15.02738
1067.19;15.02098
1067.61;15.00484
1068.16;15.01167
1068.72;14.99930
1069.27;15.00957
1069.82;15.03038
1070.37;15.05277
1070.93;15.05122
1071.33;15.07744
1071.48;15.08705
1072.03;15.07733
1072.58;15.09294
1073.14;15.13700
1073.69;15.21416
1074.24;15.24186
1074.79;15.24505
1075.34;15.24309
1075.47;15.25237
1075.90;15.28355
1076.45;15.26510
1077.00;15.25595
1077.55;15.24277
1078.10;15.27724
1078.66;15.30215
1079.21;15.33772
1079.60;15.34253
1079.76;15.34461
1080.31;15.35377
1080.86;15.35269
1081.41;15.38396
1081.97;15.37196
1082.52;15.39407
1083.07;15.38466
1083.62;15.45463
1083.73;15.45847
1084.17;15.47042
1084.72;15.51961
1085.27;15.51066
1085.82;15.49028
1086.38;15.47994
1086.93;15.48586
1087.48;15.51040
1087.85;15.51895
1088.03;15.52511
1088.58;15.53211
1089.13;15.55532
1089.68;15.56445
1090.23;15.59275
1090.78;15.60343
1091.33;15.61653
1091.88;15.62542
1091.98;15.62697
1092.43;15.63210
1092.99;15.64071
1093.54;15.66646
1094.09;15.70061
1094.64;15.72660
1095.19;15.74190
1095.74;15.74489
1096.10;15.74831
1096.29;15.75114
1096.84;15.75921
1097.39;15.77487
1097.94;15.79749
1098.49;15.81728
1099.04;15.83642
1099.59;15.85332
1100.14;15.87016
1100.21;15.87188
1104.33;15.96262
1108.44;16.08186
1112.55;16.15720
1116.66;16.24433
1120.76;16.33941
1124.86;16.37861
1128.96;16.51889
1133.06;16.59117
1137.15;16.64577
1141.24;16.73123
1145.33;16.83550
1149.41;16.88303
1153.49;16.95492
1157.57;17.05786
1161.65;17.12205
1165.73;17.18943
1169.80;17.24814
1173.87;17.34619
1177.93;17.38664
1182.00;17.46124
1186.06;17.52304
1190.12;17.58516
1194.18;17.66806
1198.23;17.72825
1202.28;17.82924
1206.33;17.88849
1210.38;17.91230
1214.42;17.99511
1218.46;18.05904
1222.50;18.09945
1226.54;18.16488
1230.57;18.19628
1234.60;18.24408
1238.63;18.31027
1242.66;18.34817
1246.68;18.41022
1250.70;18.45542
1254.72;18.49232
1258.74;18.55345
1262.76;18.60371
1266.77;18.69847
1270.78;18.72339
1274.79;18.71642
1278.79;18.76165
1282.79;18.77694
1286.80;18.81941
1290.79;18.88811
1294.79;18.91294
1298.78;18.93649
1302.77;18.96159
1306.76;18.98477
1310.75;19.01447
1314.74;19.05523
1318.72;19.06964
1322.70;19.12580
1326.68;19.17942
1330.65;19.20629
1334.63;19.18578
1338.60;19.17674
1342.57;19.25290
1346.53;19.26627
1350.50;19.27232
1354.46;19.31012
1358.42;19.34515
1362.38;19.34601
1366.34;19.38588
1370.29;19.37639
1374.24;19.39081
1378.19;19.35408
1382.14;19.41849
1386.09;19.43166
1390.03;19.45301
1393.97;19.47880
1397.91;19.46788
1401.85;19.47363
1405.78;19.54056
1409.72;19.51497
1413.65;19.55467
1417.58;19.56019
1421.51;19.55771
1425.43;19.59021
1429.36;19.59745
1433.28;19.56517
1437.20;19.59295
1441.12;19.58201
1445.03;19.61024
1448.95;19.59844
1452.86;19.65284
1456.77;19.61050
1460.68;19.58576
1464.58;19.56157
1468.49;19.57026
1472.39;19.59685
1476.29;19.58859
1480.19;19.59432
1484.09;19.56043
1487.98;19.58679
1491.88;19.51439
1495.77;19.44341
1499.66;19.46100
1503.55;19.50506
1507.43;19.51403
1511.32;19.52007
1515.20;19.43482
1519.08;19.45729
1522.96;19.42566
1526.84;19.42234
1530.71;19.44832
1534.59;19.36931
1538.46;19.37954
1542.33;19.35469
1546.20;19.32258
1550.07;19.35754
1553.94;19.37854
1557.80;19.32081
1561.66;19.28976
1565.52;19.27267
1569.38;19.27226
1573.24;19.26211
1577.10;19.22726
1580.95;19.18060
1584.80;19.17642
1588.66;19.11973
1592.51;19.13623
1596.35;19.10968
1600.20;19.09354
1604.05;19.09951
1607.89;19.11526
1611.73;18.99971
1615.57;18.99189
1619.41;18.97804
1623.25;18.95603
1627.09;18.88393
1630.92;18.86222
1634.76;18.87531
1638.59;18.82212
1642.42;18.81768
1646.25;18.84979
1650.08;18.76427
1653.90;18.72821
1657.73;18.71841
1661.55;18.76685
1665.37;18.73963
1669.20;18.69512
1673.02;18.68383
1676.83;18.68632
1680.65;18.64098
1684.47;18.60098
1688.28;18.60443
1692.09;18.64722
1695.91;18.62807
1699.72;18.50629
1703.53;18.51057
1707.33;18.52322
1711.14;18.49170
1714.95;18.40400
1718.75;18.33322
1722.55;18.27556
1726.35;18.25298
1730.16;18.23835
1733.96;18.15068
1737.75;18.07949
1741.55;17.87934

