Merged spectral data

 274.41; 0.00238
 275.01; 0.00127
 275.61;-0.00104
 276.22;-0.00176
 276.82;-0.00220
 277.42;-0.00007
 278.03; 0.00185
 278.63; 0.00158
 279.24; 0.00191
 279.84; 0.00089
 280.44; 0.00136
 281.05; 0.00125
 281.65;-0.00050
 282.25; 0.00013
 282.86;-0.00027
 283.46; 0.00264
 284.06; 0.00228
 284.67; 0.00297
 285.27; 0.00277
 285.87; 0.00396
 286.48; 0.00140
 287.08; 0.00034
 287.68;-0.00202
 288.29; 0.00147
 288.89; 0.00234
 289.49; 0.00134
 290.10;-0.00120
 290.70;-0.00401
 291.30;-0.00153
 291.91;-0.00139
 292.51; 0.00001
 293.11;-0.00075
 293.72;-0.00006
 294.32; 0.00199
 294.92; 0.00188
 295.52; 0.00225
 296.13; 0.00290
 296.73; 0.00361
 297.33; 0.00361
 297.94; 0.00140
 298.54; 0.00160
 299.14;-0.00146
 299.74;-0.00250
 300.35;-0.00489
 300.95;-0.00030
 301.55; 0.00007
 302.15; 0.00184
 302.76;-0.00011
 303.36; 0.00021
 303.96;-0.00223
 304.56; 0.00019
 305.17;-0.00139
 305.77;-0.00112
 306.37;-0.00418
 306.97;-0.00196
 307.58;-0.00057
 308.18; 0.00049
 308.78;-0.00177
 309.38;-0.00223
 309.98;-0.00363
 310.59; 0.00302
 311.19; 0.00327
 311.79; 0.00360
 312.39;-0.00412
 313.00;-0.01009
 313.60;-0.00775
 314.20;-0.00220
 314.80; 0.00284
 315.40; 0.00149
 316.01;-0.00097
 316.61; 0.00509
 317.21; 0.00417
 317.81; 0.00624
 318.41; 0.00096
 319.01; 0.00369
 319.62; 0.00257
 320.22; 0.00363
 320.82;-0.00164
 321.42;-0.00371
 322.02;-0.00409
 322.62;-0.00796
 323.23;-0.00486
 323.83;-0.00622
 324.43;-0.00253
 325.03;-0.00401
 325.63;-0.00683
 326.23;-0.00876
 326.83;-0.01273
 327.44;-0.01418
 328.04;-0.00688
 328.64;-0.00330
 329.24; 0.00664
 329.84; 0.00174
 330.44; 0.00662
 331.04;-0.00610
 331.64;-0.01067
 332.24;-0.01633
 332.85;-0.00925
 333.45; 0.00243
 334.05;-0.00056
 334.65;-0.00258
 335.25;-0.00551
 335.85;-0.00567
 336.45;-0.00151
 337.05;-0.00576
 337.65;-0.00319
 338.25;-0.00769
 338.85; 0.00545
 339.46; 0.01178
 340.06; 0.01704
 340.66; 0.00289
 341.26;-0.01392
 341.86;-0.01827
 342.46;-0.01136
 343.06;-0.00519
 343.66;-0.00396
 344.26;-0.00563
 344.86;-0.00148
 345.46;-0.00560
 346.06;-0.00466
 346.66; 0.00235
 347.26; 0.00421
 347.86;-0.00124
 348.46;-0.00133
 349.06;-0.00016
 349.66; 0.00049
 350.26;-0.00090
 350.86; 0.00170
 351.46; 0.00162
 352.06;-0.01179
 352.66;-0.01118
 353.26;-0.01162
 353.86;-0.00439
 354.46;-0.00856
 355.06;-0.00118
 355.66; 0.00863
 356.26; 0.00850
 356.86; 0.00825
 357.46;-0.00732
 358.06;-0.00852
 358.66;-0.01263
 359.26;-0.00128
 359.86; 0.00534
 360.46; 0.00468
 361.06;-0.00127
 361.66;-0.00093
 362.26;-0.00683
 362.86;-0.01535
 363.46;-0.01348
 364.06;-0.00830
 364.66; 0.00221
 365.26;-0.01129
 365.86; 0.00054
 366.46; 0.00434
 367.06;-0.00815
 367.66;-0.01540
 368.25;-0.01857
 368.85; 0.00188
 369.45; 0.00508
 370.05;-0.00200
 370.65;-0.00969
 371.25;-0.01789
 371.85;-0.01491
 372.45;-0.01986
 373.05;-0.01377
 373.65;-0.01587
 374.25; 0.00074
 374.84; 0.00236
 375.44; 0.00824
 376.04; 0.00293
 376.64;-0.00093
 377.24; 0.00282
 377.84;-0.00364
 378.44;-0.01663
 379.04;-0.02071
 379.63;-0.00733
 380.23; 0.00496
 380.83; 0.00330
 381.43; 0.00238
 382.03;-0.01092
 382.63;-0.00654
 383.23;-0.00495
 383.82; 0.00460
 384.42; 0.00192
 385.02; 0.00389
 385.62; 0.00645
 386.22; 0.00040
 386.82;-0.00592
 387.41;-0.00893
 388.01;-0.00150
 388.61; 0.00645
 389.21; 0.01109
 389.81; 0.00191
 390.41;-0.00483
 391.00;-0.00678
 391.60; 0.00179
 392.20;-0.00558
 392.80;-0.01183
 393.40;-0.01012
 393.99;-0.00062
 394.59; 0.00052
 395.19;-0.00537
 395.79;-0.01264
 396.39;-0.00849
 396.98; 0.00088
 397.58; 0.00290
 398.18; 0.00195
 398.78;-0.00601
 399.37; 0.00074
 399.97;-0.00187
 400.57; 0.00218
 401.17; 0.00107
 401.76; 0.00164
 402.36;-0.00284
 402.96;-0.00724
 403.56;-0.00657
 404.15;-0.00275
 404.75; 0.00023
 405.35; 0.00405
 405.95; 0.00220
 406.54;-0.00136
 407.14;-0.00118
 407.74;-0.00296
 408.33; 0.00132
 408.93;-0.00191
 409.53;-0.00016
 410.13;-0.00225
 410.72;-0.00006
 411.32; 0.00548
 411.92; 0.00837
 412.51; 0.00565
 413.11; 0.00693
 413.71; 0.00370
 414.30; 0.01033
 414.90; 0.00212
 415.50;-0.00002
 416.09;-0.00606
 416.69;-0.00186
 417.29;-0.00028
 417.88;-0.00238
 418.48;-0.00507
 419.08;-0.00800
 419.67;-0.00234
 420.27;-0.00179
 420.87; 0.00753
 421.46; 0.01082
 422.06; 0.01026
 422.66; 0.00330
 423.25;-0.00434
 423.85;-0.00267
 424.45;-0.00235
 425.04; 0.00073
 425.64;-0.00030
 426.23; 0.00298
 426.83;-0.00168
 427.43;-0.00232
 428.02;-0.00252
 428.62; 0.00171
 429.22;-0.00464
 429.81;-0.00308
 430.41;-0.00544
 431.00; 0.00039
 431.60;-0.00096
 432.20; 0.00415
 432.79; 0.00755
 433.39; 0.00923
 433.98; 0.00990
 434.58; 0.00512
 435.17; 0.00204
 435.77; 0.00249
 436.37; 0.00659
 436.96; 0.00580
 437.56; 0.00153
 438.15; 0.00412
 438.75; 0.00467
 439.34; 0.00600
 439.94; 0.00508
 440.53; 0.00745
 441.13; 0.00738
 441.73; 0.00920
 442.32; 0.00752
 442.92; 0.00729
 443.51; 0.00498
 444.11; 0.00720
 444.70; 0.00661
 445.30; 0.00392
 445.89; 0.00107
 446.49;-0.00008
 447.08; 0.00162
 447.68; 0.00449
 448.27; 0.00970
 448.87; 0.00970
 449.46; 0.00923
 450.06; 0.00605
 450.65; 0.00375
 451.25; 0.00488
 451.84; 0.00443
 452.44; 0.00820
 453.03; 0.00633
 453.63; 0.00779
 454.22; 0.00422
 454.82; 0.00508
 455.41; 0.00417
 456.00; 0.00588
 456.60; 0.00195
 457.19; 0.00222
 457.79; 0.00176
 458.38; 0.00207
 458.98; 0.00384
 459.57; 0.00809
 460.17; 0.01296
 460.76; 0.00839
 461.35; 0.00384
 461.95; 0.00136
 462.54; 0.00282
 463.14; 0.00280
 463.73; 0.00057
 464.33; 0.00161
 464.92; 0.00314
 465.51; 0.00730
 466.11; 0.00800
 466.70; 0.00777
 467.30; 0.00657
 467.89; 0.00905
 468.48; 0.00725
 469.08; 0.00662
 469.67; 0.00349
 470.26; 0.00388
 470.86; 0.00413
 471.45; 0.00398
 472.05; 0.00585
 472.64; 0.00393
 473.23; 0.00475
 473.83; 0.00324
 474.42; 0.00564
 475.01; 0.00522
 475.61; 0.00320
 476.20; 0.00091
 476.79;-0.00077
 477.39; 0.00053
 477.98; 0.00340
 478.57; 0.00282
 479.17; 0.00309
 479.76; 0.00380
 480.35; 0.00620
 480.95; 0.00576
 481.54; 0.00218
 482.13; 0.00130
 482.73; 0.00198
 483.32; 0.00237
 483.91; 0.00200
 484.51; 0.00173
 485.10; 0.00165
 485.69; 0.00327
 486.29; 0.00331
 486.88; 0.00426
 487.47; 0.00158
 488.06; 0.00280
 488.66; 0.00160
 489.25; 0.00246
 489.84; 0.00133
 490.43; 0.00239
 491.03; 0.00344
 491.62; 0.00169
 492.21; 0.00070
 492.80; 0.00012
 493.40; 0.00151
 493.99; 0.00212
 494.58; 0.00116
 495.17; 0.00048
 495.77; 0.00045
 496.36; 0.00194
 496.95; 0.00355
 497.54; 0.00452
 498.14; 0.00396
 498.73; 0.00316
 499.32; 0.00395
 499.91; 0.00429
 500.51; 0.00428
 501.10; 0.00170
 501.69; 0.00078
 502.28; 0.00213
 502.87; 0.00335
 503.47; 0.00327
 504.06; 0.00268
 504.65; 0.00238
 505.24; 0.00277
 505.83; 0.00307
 506.42; 0.00081
 507.02; 0.00003
 507.61;-0.00102
 508.20; 0.00126
 508.79; 0.00180
 509.38; 0.00211
 509.97; 0.00152
 510.57; 0.00292
 511.16; 0.00215
 511.75; 0.00255
 512.34; 0.00224
 512.93; 0.00264
 513.52; 0.00354
 514.11; 0.00285
 514.71; 0.00243
 515.30; 0.00180
 515.89; 0.00267
 516.48; 0.00289
 517.07; 0.00375
 517.66; 0.00355
 518.25; 0.00379
 518.84; 0.00316
 519.43; 0.00249
 520.03; 0.00351
 520.62; 0.00416
 521.21; 0.00541
 521.80; 0.00512
 522.39; 0.00480
 522.98; 0.00369
 523.57; 0.00333
 524.16; 0.00257
 524.75; 0.00291
 525.34; 0.00355
 525.93; 0.00453
 526.52; 0.00405
 527.12; 0.00429
 527.71; 0.00387
 528.30; 0.00309
 528.89; 0.00251
 529.48; 0.00259
 530.07; 0.00409
 530.66; 0.00302
 531.25; 0.00245
 531.84; 0.00165
 532.43; 0.00289
 533.02; 0.00316
 533.61; 0.00454
 534.20; 0.00444
 534.79; 0.00545
 535.38; 0.00501
 535.97; 0.00449
 536.56; 0.00363
 537.15; 0.00305
 537.74; 0.00386
 538.33; 0.00457
 538.92; 0.00422
 539.51; 0.00362
 540.10; 0.00278
 540.69; 0.00386
 541.28; 0.00280
 541.87; 0.00373
 542.46; 0.00256
 543.05; 0.00393
 543.64; 0.00343
 544.23; 0.00465
 544.82; 0.00492
 545.41; 0.00349
 546.00; 0.00198
 546.59;-0.00119
 547.17; 0.00115
 547.76; 0.00232
 548.35; 0.00425
 548.94; 0.00408
 549.53; 0.00335
 550.12; 0.00264
 550.71; 0.00134
 551.30; 0.00195
 551.89; 0.00271
 552.48; 0.00270
 553.07; 0.00213
 553.66; 0.00160
 554.24; 0.00215
 554.83; 0.00151
 555.42; 0.00210
 556.01; 0.00147
 556.60; 0.00229
 557.19; 0.00359
 557.78; 0.00464
 558.37; 0.00392
 558.96; 0.00253
 559.54; 0.00020
 560.13; 0.00219
 560.72; 0.00245
 561.31; 0.00428
 561.90; 0.00327
 562.49; 0.00491
 563.08; 0.00449
 563.66; 0.00399
 564.25; 0.00288
 564.84; 0.00206
 565.43; 0.00232
 566.02; 0.00210
 566.61; 0.00217
 567.19; 0.00152
 567.78; 0.00172
 568.37; 0.00321
 568.96; 0.00376
 569.55; 0.00306
 570.13; 0.00182
 570.72; 0.00207
 571.31; 0.00188
 571.90; 0.00223
 572.49; 0.00173
 573.07; 0.00277
 573.66; 0.00303
 574.25; 0.00298
 574.84; 0.00226
 575.43; 0.00237
 576.01; 0.00278
 576.60; 0.00329
 577.19; 0.00282
 577.78; 0.00205
 578.36; 0.00236
 578.95; 0.00262
 579.54; 0.00322
 580.13; 0.00289
 580.71; 0.00292
 581.30; 0.00411
 581.89; 0.00458
 582.48; 0.00441
 583.06; 0.00363
 583.65; 0.00355
 584.24; 0.00390
 584.82; 0.00422
 585.41; 0.00208
 586.00; 0.00254
 586.59; 0.00203
 587.17; 0.00433
 587.76; 0.00391
 588.35; 0.00394
 588.93; 0.00398
 589.52; 0.00282
 590.11; 0.00308
 590.69; 0.00409
 591.28; 0.00542
 591.87; 0.00536
 592.45; 0.00373
 593.04; 0.00358
 593.63; 0.00457
 594.21; 0.00392
 594.80; 0.00393
 595.39; 0.00385
 595.97; 0.00333
 596.56; 0.00395
 597.15; 0.00392
 597.73; 0.00505
 598.32; 0.00473
 598.91; 0.00289
 599.49; 0.00326
 600.08; 0.00325
 600.66; 0.00450
 601.25; 0.00421
 601.84; 0.00433
 602.42; 0.00493
 603.01; 0.00576
 603.60; 0.00615
 604.18; 0.00463
 604.77; 0.00369
 605.35; 0.00148
 605.94; 0.00373
 606.53; 0.00482
 607.11; 0.00553
 607.70; 0.00421
 608.28; 0.00385
 608.87; 0.00417
 609.45; 0.00403
 610.04; 0.00275
 610.63; 0.00217
 611.21; 0.00228
 611.80; 0.00330
 612.38; 0.00535
 612.97; 0.00403
 613.55; 0.00377
 614.14; 0.00411
 614.72; 0.00509
 615.31; 0.00472
 615.89; 0.00293
 616.48; 0.00355
 617.06; 0.00378
 617.65; 0.00570
 618.23; 0.00498
 618.82; 0.00582
 619.40; 0.00566
 619.99; 0.00614
 620.57; 0.00601
 621.16; 0.00673
 621.74; 0.00803
 622.33; 0.00709
 622.91; 0.00524
 623.50; 0.00458
 624.08; 0.00553
 624.67; 0.00624
 625.25; 0.00548
 625.84; 0.00475
 626.42; 0.00396
 627.01; 0.00523
 627.59; 0.00570
 628.18; 0.00784
 628.76; 0.00710
 629.35; 0.00721
 629.93; 0.00620
 630.51; 0.00799
 631.10; 0.01012
 631.68; 0.01048
 632.27; 0.00774
 632.85; 0.00578
 633.44; 0.00562
 634.02; 0.00682
 634.60; 0.00781
 635.19; 0.00731
 635.77; 0.00718
 636.36; 0.00553
 636.94; 0.00512
 637.52; 0.00380
 638.11; 0.00310
 638.69; 0.00336
 639.28; 0.00385
 639.86; 0.00602
 640.44; 0.00529
 641.03; 0.00671
 641.61; 0.00687
 642.19; 0.00653
 642.78; 0.00611
 643.36; 0.00431
 643.94; 0.00599
 644.53; 0.00468
 645.11; 0.00549
 645.70; 0.00518
 646.28; 0.00794
 646.86; 0.00869
 647.45; 0.00952
 648.03; 0.00891
 648.61; 0.00967
 649.19; 0.00978
 649.78; 0.00721
 650.36; 0.00561
 650.94; 0.00528
 651.53; 0.00688
 652.11; 0.00727
 652.69; 0.00657
 653.28; 0.00760
 653.86; 0.00785
 654.44; 0.00744
 655.02; 0.00730
 655.61; 0.00774
 656.19; 0.00894
 656.77; 0.00727
 657.36; 0.00863
 657.94; 0.00810
 658.52; 0.00925
 659.10; 0.00637
 659.69; 0.00623
 660.27; 0.00604
 660.85; 0.00775
 661.43; 0.00770
 662.02; 0.00854
 662.60; 0.00787
 663.18; 0.00815
 663.76; 0.00912
 664.35; 0.00980
 664.93; 0.00889
 665.51; 0.00874
 666.09; 0.00784
 666.67; 0.00833
 667.26; 0.00719
 667.84; 0.00799
 668.42; 0.00933
 669.00; 0.00858
 669.58; 0.00813
 670.17; 0.00766
 670.75; 0.00796
 671.33; 0.00921
 671.91; 0.00908
 672.49; 0.01117
 673.07; 0.01118
 673.66; 0.01087
 674.24; 0.00996
 674.82; 0.01039
 675.40; 0.01286
 675.98; 0.01299
 676.56; 0.01165
 677.15; 0.00874
 677.73; 0.00917
 678.31; 0.01017
 678.89; 0.00992
 679.47; 0.01095
 680.05; 0.00989
 680.63; 0.01085
 681.21; 0.00880
 681.80; 0.00914
 682.38; 0.00920
 682.96; 0.01029
 683.54; 0.00994
 684.12; 0.01017
 684.70; 0.01061
 685.28; 0.01052
 685.86; 0.01209
 686.44; 0.01159
 687.02; 0.01367
 687.60; 0.01434
 688.19; 0.01416
 688.77; 0.01356
 689.35; 0.01265
 689.93; 0.01431
 690.51; 0.01374
 691.09; 0.01281
 691.67; 0.01168
 692.25; 0.01434
 692.83; 0.01382
 693.41; 0.01383
 693.99; 0.01236
 694.57; 0.01418
 695.15; 0.01446
 695.73; 0.01503
 696.31; 0.01529
 696.89; 0.01594
 697.47; 0.01490
 698.05; 0.01537
 698.63; 0.01286
 699.21; 0.01223
 699.79; 0.01100
 700.37; 0.01530
 700.95; 0.01690
 701.53; 0.01797
 702.11; 0.01583
 702.69; 0.01587
 703.27; 0.01475
 703.85; 0.01444
 704.43; 0.01244
 705.01; 0.01211
 705.59; 0.01017
 706.17; 0.01321
 706.75; 0.01511
 707.33; 0.01735
 707.91; 0.01617
 708.49; 0.01722
 709.07; 0.01846
 709.64; 0.02035
 710.22; 0.01943
 710.80; 0.01804
 711.38; 0.01554
 711.96; 0.01490
 712.54; 0.01409
 713.12; 0.01494
 713.70; 0.01456
 714.28; 0.01732
 714.86; 0.01802
 715.44; 0.01952
 716.01; 0.01991
 716.59; 0.02122
 717.17; 0.01965
 717.75; 0.01749
 718.33; 0.01749
 718.91; 0.01874
 719.49; 0.01914
 720.07; 0.01928
 720.64; 0.01805
 721.22; 0.01979
 721.80; 0.01775
 722.38; 0.01894
 722.96; 0.01789
 723.54; 0.01934
 724.12; 0.01961
 724.69; 0.02148
 725.27; 0.01929
 725.85; 0.02066
 726.43; 0.02098
 727.01; 0.02351
 727.58; 0.02418
 728.16; 0.02217
 728.74; 0.01926
 729.32; 0.02102
 729.90; 0.02210
 730.47; 0.02204
 731.05; 0.02232
 731.63; 0.02341
 732.21; 0.02588
 732.79; 0.02404
 733.36; 0.02025
 733.94; 0.02050
 734.52; 0.01743
 735.10; 0.01948
 735.67; 0.01745
 736.25; 0.01826
 736.83; 0.02085
 737.41; 0.02305
 737.98; 0.02784
 738.56; 0.02828
 739.14; 0.02775
 739.72; 0.02511
 740.29; 0.02574
 740.87; 0.02396
 741.45; 0.02446
 742.02; 0.02404
 742.60; 0.02696
 743.18; 0.02637
 743.76; 0.02295
 744.33; 0.02494
 744.91; 0.02502
 745.49; 0.02935
 746.06; 0.02973
 746.64; 0.03076
 747.22; 0.02942
 747.79; 0.02748
 748.37; 0.03322
 748.95; 0.03417
 749.52; 0.03604
 750.10; 0.03339
 750.68; 0.03105
 751.25; 0.02797
 751.83; 0.02834
 752.41; 0.03171
 752.98; 0.03244
 753.56; 0.02958
 754.14; 0.02916
 754.71; 0.03220
 755.29; 0.03493
 755.86; 0.03448
 756.44; 0.03500
 757.02; 0.02990
 757.59; 0.03193
 758.17; 0.03076
 758.75; 0.03527
 759.32; 0.03124
 759.90; 0.03264
 760.47; 0.03392
 761.05; 0.03523
 761.62; 0.03303
 762.20; 0.02889
 762.78; 0.03076
 763.35; 0.03470
 763.93; 0.03777
 764.50; 0.03487
 765.08; 0.03070
 765.65; 0.02860
 766.23; 0.03192
 766.81; 0.03285
 767.38; 0.03490
 767.96; 0.03295
 768.53; 0.03759
 769.11; 0.03677
 769.68; 0.03740
 770.26; 0.03300
 770.83; 0.03286
 771.41; 0.03241
 771.98; 0.03647
 772.56; 0.03792
 773.13; 0.03846
 773.71; 0.03642
 774.28; 0.03798
 774.86; 0.04121
 775.43; 0.04651
 776.01; 0.04623
 776.58; 0.04684
 777.16; 0.04406
 777.73; 0.04174
 778.31; 0.04227
 778.88; 0.04366
 779.46; 0.04547
 780.03; 0.04505
 780.61; 0.04085
 781.18; 0.04136
 781.75; 0.04301
 782.33; 0.04540
 782.90; 0.04480
 783.48; 0.04331
 784.05; 0.04480
 784.63; 0.05015
 785.20; 0.05007
 785.77; 0.05383
 786.35; 0.04870
 786.92; 0.04982
 787.50; 0.04620
 788.07; 0.04668
 788.64; 0.04605
 789.22; 0.04653
 789.79; 0.04221
 790.37; 0.04858
 790.94; 0.04745
 791.51; 0.05316
 792.09; 0.04666
 792.66; 0.04373
 793.23; 0.04812
 793.81; 0.04657
 794.38; 0.05004
 794.96; 0.04711
 795.53; 0.05245
 796.10; 0.05617
 796.68; 0.05436
 797.25; 0.05842
 797.82; 0.05467
 798.40; 0.05915
 798.97; 0.05523
 799.54; 0.05636
 800.12; 0.04980
 800.69; 0.04899
 801.26; 0.05002
 801.83; 0.05502
 802.41; 0.05794
 802.98; 0.05861
 803.55; 0.06543
 804.13; 0.06599
 804.70; 0.06504
 805.27; 0.05324
 805.84; 0.05830
 806.42; 0.06154
 806.99; 0.06690
 807.56; 0.06768
 808.14; 0.06905
 808.71; 0.07060
 809.28; 0.06812
 809.85; 0.06930
 810.43; 0.07063
 811.00; 0.06680
 811.57; 0.06147
 812.14; 0.05911
 812.71; 0.05780
 813.29; 0.06198
 813.86; 0.06642
 814.43; 0.07401
 815.00; 0.07893
 815.58; 0.07291
 816.15; 0.07317
 816.72; 0.06940
 817.29; 0.07217
 817.86; 0.06476
 818.44; 0.06147
 819.01; 0.06434
 819.58; 0.06824
 820.15; 0.07568
 820.72; 0.07527
 821.29; 0.07373
 821.87; 0.06684
 822.44; 0.06715
 823.01; 0.06378
 823.58; 0.06804
 824.15; 0.06668
 824.72; 0.07559
 825.29; 0.07576
 825.87; 0.08142
 826.44; 0.07653
 827.01; 0.07946
 827.58; 0.07700
 828.15; 0.07652
 828.72; 0.07197
 829.29; 0.07514
 829.86; 0.08127
 830.44; 0.08395
 831.01; 0.08045
 831.58; 0.07987
 832.15; 0.08733
 832.72; 0.09138
 833.29; 0.09172
 833.86; 0.08707
 834.43; 0.08799
 835.00; 0.09222
 835.57; 0.10082
 836.14; 0.10953
 836.71; 0.11016
 837.28; 0.10381
 837.86; 0.09189
 838.43; 0.08996
 839.00; 0.08683
 839.57; 0.08882
 840.14; 0.08738
 840.71; 0.08618
 841.28; 0.09490
 841.85; 0.09908
 842.42; 0.10519
 842.99; 0.10720
 843.56; 0.10381
 844.13; 0.10165
 844.70; 0.10059
 845.27; 0.09955
 845.84; 0.10098
 846.41; 0.09348
 846.98; 0.09152
 847.55; 0.08581
 848.12; 0.08793
 848.69; 0.08748
 849.26; 0.09875
 849.83; 0.10107
 850.40; 0.11149
 850.97; 0.10970
 851.53; 0.10183
 852.10; 0.09198
 852.67; 0.09418
 853.24; 0.10162
 853.81; 0.10082
 854.38; 0.08896
 854.95; 0.08526
 855.52; 0.09972
 856.09; 0.10608
 856.50; 0.10948
 856.66; 0.11558
 857.23; 0.18937
 857.80; 0.36430
 858.37; 0.61799
 858.93; 0.94410
 859.50; 1.36777
 860.07; 1.88628
 860.64; 2.51113
 860.80; 2.69048
 861.21; 2.66564
 861.78; 2.55769
 862.35; 2.35376
 862.92; 2.06466
 863.48; 1.68510
 864.05; 1.21481
 864.62; 0.66455
 865.08; 0.14405
 865.19; 0.14342
 865.76; 0.15267
 866.33; 0.13910
 866.90; 0.13642
 867.46; 0.12916
 868.03; 0.12532
 868.60; 0.12686
 869.17; 0.11036
 869.37; 0.11189
 869.74; 0.12233
 870.31; 0.12351
 870.87; 0.12826
 871.44; 0.12495
 872.01; 0.13864
 872.58; 0.15320
 873.15; 0.16273
 873.65; 0.15806
 873.71; 0.15650
 874.28; 0.14729
 874.85; 0.15644
 875.42; 0.15843
 875.98; 0.15224
 876.55; 0.13710
 877.12; 0.13906
 877.69; 0.14267
 877.93; 0.14345
 878.25; 0.14962
 878.82; 0.15718
 879.39; 0.17611
 879.96; 0.18258
 880.52; 0.19154
 881.09; 0.19662
 881.66; 0.21142
 882.20; 0.22373
 882.23; 0.22383
 882.79; 0.22074
 883.36; 0.21978
 883.93; 0.21379
 884.50; 0.22489
 885.06; 0.21727
 885.63; 0.21266
 886.20; 0.19990
 886.47; 0.20321
 886.76; 0.20738
 887.33; 0.20840
 887.90; 0.20477
 888.46; 0.20264
 889.03; 0.20842
 889.60; 0.20626
 890.16; 0.20704
 890.73; 0.20065
 890.74; 0.20064
 891.30; 0.19812
 891.86; 0.18844
 892.43; 0.17947
 893.00; 0.18799
 893.56; 0.18400
 894.13; 0.19377
 894.70; 0.17746
 895.01; 0.17356
 895.26; 0.17418
 895.83; 0.16684
 896.39; 0.18062
 896.96; 0.18321
 897.53; 0.18331
 898.09; 0.18405
 898.66; 0.20012
 899.22; 0.20941
 899.27; 0.20931
 899.79; 0.20316
 900.36; 0.19658
 900.92; 0.20141
 901.49; 0.20082
 902.05; 0.19106
 902.62; 0.18555
 903.19; 0.17030
 903.53; 0.17254
 903.75; 0.17641
 904.32; 0.19268
 904.88; 0.20600
 905.45; 0.20885
 906.01; 0.19150
 906.58; 0.20179
 907.14; 0.19958
 907.71; 0.21296
 907.78; 0.21330
 908.28; 0.21098
 908.84; 0.22581
 909.41; 0.21365
 909.97; 0.21703
 910.54; 0.20924
 911.10; 0.23976
 911.67; 0.24934
 912.04; 0.25399
 912.23; 0.25606
 912.80; 0.24638
 913.36; 0.24872
 913.93; 0.24839
 914.49; 0.24497
 915.06; 0.24163
 915.62; 0.25189
 916.19; 0.25282
 916.28; 0.25222
 916.75; 0.25003
 917.31; 0.22693
 917.88; 0.22504
 918.44; 0.21892
 919.01; 0.22646
 919.57; 0.22321
 920.14; 0.22149
 920.53; 0.21689
 920.70; 0.21567
 921.27; 0.21780
 921.83; 0.22658
 922.39; 0.23970
 922.96; 0.23318
 923.52; 0.23369
 924.09; 0.23483
 924.65; 0.24453
 924.77; 0.23951
 925.22; 0.21611
 925.78; 0.20380
 926.34; 0.19764
 926.91; 0.21228
 927.47; 0.20613
 928.03; 0.21102
 928.60; 0.20094
 929.01; 0.20370
 929.16; 0.20715
 929.73; 0.20060
 930.29; 0.20212
 930.85; 0.19558
 931.42; 0.19334
 931.98; 0.20919
 932.54; 0.21408
 933.11; 0.23224
 933.25; 0.23313
 933.67; 0.23043
 934.23; 0.23697
 934.80; 0.23513
 935.36; 0.23206
 935.92; 0.21737
 936.49; 0.20721
 937.05; 0.18736
 937.48; 0.19004
 937.61; 0.19228
 938.18; 0.19796
 938.74; 0.21148
 939.30; 0.21692
 939.87; 0.21447
 940.43; 0.22694
 940.99; 0.21845
 941.55; 0.21720
 941.71; 0.21546
 942.12; 0.20880
 942.68; 0.21092
 943.24; 0.21960
 943.80; 0.22013
 944.37; 0.23574
 944.93; 0.23729
 945.49; 0.23217
 945.94; 0.22763
 946.05; 0.22638
 946.62; 0.22029
 947.18; 0.22724
 947.74; 0.21470
 948.30; 0.21380
 948.87; 0.21606
 949.43; 0.23197
 949.99; 0.23044
 950.16; 0.23249
 950.55; 0.23826
 951.11; 0.23246
 951.68; 0.22503
 952.24; 0.22721
 952.80; 0.22778
 953.36; 0.23560
 953.92; 0.21739
 954.38; 0.22816
 954.49; 0.23055
 955.05; 0.24845
 955.61; 0.25551
 956.17; 0.24039
 956.73; 0.23295
 957.29; 0.24335
 957.86; 0.25200
 958.42; 0.25801
 958.60; 0.25588
 958.98; 0.25148
 959.54; 0.25004
 960.10; 0.23296
 960.66; 0.23521
 961.22; 0.24129
 961.79; 0.24814
 962.35; 0.24953
 962.81; 0.25021
 962.91; 0.25003
 963.47; 0.25984
 964.03; 0.26056
 964.59; 0.24680
 965.15; 0.22772
 965.71; 0.22869
 966.27; 0.23217
 966.83; 0.23717
 967.03; 0.23614
 967.40; 0.23579
 967.96; 0.25360
 968.52; 0.26558
 969.08; 0.26022
 969.64; 0.27357
 970.20; 0.27608
 970.76; 0.28114
 971.23; 0.26895
 971.32; 0.26669
 971.88; 0.26754
 972.44; 0.27272
 973.00; 0.25963
 973.56; 0.24307
 974.12; 0.24778
 974.68; 0.25760
 975.24; 0.27453
 975.44; 0.27199
 975.80; 0.26803
 976.36; 0.27212
 976.92; 0.27954
 977.48; 0.28509
 978.04; 0.26337
 978.60; 0.24913
 979.16; 0.24968
 979.64; 0.28212
 979.72; 0.28710
 980.28; 0.29408
 980.84; 0.30467
 981.40; 0.27752
 981.96; 0.28865
 982.52; 0.27049
 983.08; 0.26695
 983.64; 0.27540
 983.84; 0.27894
 984.20; 0.28595
 984.76; 0.30265
 985.32; 0.28175
 985.88; 0.26729
 986.44; 0.26669
 987.00; 0.26612
 987.55; 0.27022
 988.04; 0.25815
 988.11; 0.25638
 988.67; 0.25165
 989.23; 0.24744
 989.79; 0.24579
 990.35; 0.21957
 990.91; 0.24664
 991.47; 0.27272
 992.03; 0.30427
 992.23; 0.29651
 992.59; 0.28188
 993.14; 0.27824
 993.70; 0.27978
 994.26; 0.28288
 994.82; 0.28728
 995.38; 0.28749
 995.94; 0.29067
 996.42; 0.29265
 996.50; 0.29321
 997.05; 0.29701
 997.61; 0.30705
 998.17; 0.29205
 998.73; 0.29466
 999.29; 0.29321
 999.85; 0.30190
1000.40; 0.28943
1000.61; 0.29085
1000.96; 0.29236
1001.52; 0.28199
1002.08; 0.29111
1002.64; 0.28462
1003.19; 0.29937
1003.75; 0.30182
1004.31; 0.30332
1004.79; 0.31221
1004.87; 0.31381
1005.43; 0.31973
1005.98; 0.32772
1006.54; 0.33576
1007.10; 0.34509
1007.66; 0.31606
1008.21; 0.27610
1008.77; 0.28664
1008.97; 0.29869
1009.33; 0.32044
1009.89; 0.33400
1010.44; 0.33368
1011.00; 0.33416
1011.56; 0.35626
1012.12; 0.34197
1012.67; 0.33567
1013.15; 0.32463
1013.23; 0.32239
1013.79; 0.31389
1014.34; 0.31519
1014.90; 0.33019
1015.46; 0.35365
1016.01; 0.34992
1016.57; 0.31285
1017.13; 0.29282
1017.32; 0.29384
1017.69; 0.29657
1018.24; 0.31850
1018.80; 0.31632
1019.36; 0.31917
1019.91; 0.33601
1020.47; 0.33238
1021.03; 0.32868
1021.50; 0.31071
1021.58; 0.30760
1022.14; 0.32143
1022.69; 0.32121
1023.25; 0.32979
1023.81; 0.32694
1024.36; 0.30388
1024.92; 0.31567
1025.48; 0.31931
1025.66; 0.31404
1026.03; 0.30419
1026.59; 0.30051
1027.14; 0.29240
1027.70; 0.33987
1028.26; 0.36366
1028.81; 0.35943
1029.37; 0.34150
1029.83; 0.31976
1029.92; 0.31518
1030.48; 0.30679
1031.03; 0.31547
1031.59; 0.29224
1032.15; 0.31286
1032.70; 0.33335
1033.26; 0.36804
1033.81; 0.35325
1033.99; 0.34163
1034.37; 0.31793
1034.92; 0.28384
1035.48; 0.28349
1036.03; 0.31087
1036.59; 0.31824
1037.14; 0.32798
1037.70; 0.33895
1038.15; 0.34612
1038.26; 0.34777
1038.81; 0.34571
1039.37; 0.30804
1039.92; 0.30609
1040.48; 0.34854
1041.03; 0.34517
1041.58; 0.32854
1042.14; 0.32381
1042.31; 0.33853
1042.69; 0.37140
1043.25; 0.41501
1043.80; 0.37752
1044.36; 0.38485
1044.91; 0.38564
1045.47; 0.40685
1046.02; 0.38337
1046.47; 0.36285
1046.58; 0.35751
1047.13; 0.32414
1047.69; 0.35777
1048.24; 0.34199
1048.79; 0.33976
1049.35; 0.28999
1049.90; 0.30915
1050.46; 0.37209
1050.62; 0.36484
1051.01; 0.34750
1051.56; 0.30244
1052.12; 0.28174
1052.67; 0.32869
1053.23; 0.35232
1053.78; 0.33028
1054.33; 0.34118
1054.77; 0.37583
1054.89; 0.38574
1055.44; 0.40782
1056.00; 0.39698
1056.55; 0.40488
1057.10; 0.35503
1057.66; 0.34276
1058.21; 0.34222
1058.76; 0.38851
1058.91; 0.39393
1059.32; 0.40796
1059.87; 0.39651
1060.42; 0.37220
1060.98; 0.38183
1061.53; 0.34848
1062.08; 0.37149
1062.64; 0.31872
1063.05; 0.36404
1063.19; 0.37834
1063.74; 0.35879
1064.29; 0.40980
1064.85; 0.36118
1065.40; 0.38043
1065.95; 0.37560
1066.51; 0.39042
1067.06; 0.39393
1067.19; 0.39145
1067.61; 0.38362
1068.16; 0.37878
1068.72; 0.40847
1069.27; 0.41307
1069.82; 0.40235
1070.37; 0.36324
1070.93; 0.36939
1071.33; 0.37229
1071.48; 0.37347
1072.03; 0.36257
1072.58; 0.36107
1073.14; 0.36917
1073.69; 0.38207
1074.24; 0.36000
1074.79; 0.38637
1075.34; 0.39069
1075.47; 0.39164
1075.90; 0.39478
1076.45; 0.39179
1077.00; 0.37047
1077.55; 0.40243
1078.10; 0.42256
1078.66; 0.44073
1079.21; 0.43817
1079.60; 0.43270
1079.76; 0.43064
1080.31; 0.45278
1080.86; 0.45150
1081.41; 0.44128
1081.97; 0.42885
1082.52; 0.39920
1083.07; 0.37758
1083.62; 0.35690
1083.73; 0.36026
1084.17; 0.37333
1084.72; 0.37418
1085.27; 0.40970
1085.82; 0.41075
1086.38; 0.42025
1086.93; 0.40256
1087.48; 0.42036
1087.85; 0.42275
1088.03; 0.42494
1088.58; 0.44271
1089.13; 0.44527
1089.68; 0.44004
1090.23; 0.44689
1090.78; 0.43800
1091.33; 0.46401
1091.88; 0.46562
1091.98; 0.46725
1092.43; 0.47013
1092.99; 0.45521
1093.54; 0.43665
1094.09; 0.43452
1094.64; 0.43779
1095.19; 0.44083
1095.74; 0.43888
1096.10; 0.43373
1096.29; 0.43220
1096.84; 0.43684
1097.39; 0.44236
1097.94; 0.44518
1098.49; 0.44897
1099.04; 0.44976
1099.59; 0.45253
1100.14; 0.45211
1100.21; 0.45222
1104.33; 0.46701
1108.44; 0.47316
1112.55; 0.47723
1116.66; 0.49156
1120.76; 0.51404
1124.86; 0.50249
1128.96; 0.51613
1133.06; 0.52447
1137.15; 0.52795
1141.24; 0.54443
1145.33; 0.55811
1149.41; 0.55508
1153.49; 0.57487
1157.57; 0.58663
1161.65; 0.59296
1165.73; 0.58739
1169.80; 0.61217
1173.87; 0.62074
1177.93; 0.62587
1182.00; 0.63301
1186.06; 0.64522
1190.12; 0.64778
1194.18; 0.66498
1198.23; 0.66868
1202.28; 0.68304
1206.33; 0.69356
1210.38; 0.69037
1214.42; 0.70622
1218.46; 0.71672
1222.50; 0.72451
1226.54; 0.73475
1230.57; 0.74212
1234.60; 0.74900
1238.63; 0.76274
1242.66; 0.77182
1246.68; 0.77963
1250.70; 0.78804
1254.72; 0.79333
1258.74; 0.80791
1262.76; 0.81785
1266.77; 0.82806
1270.78; 0.83966
1274.79; 0.84242
1278.79; 0.85131
1282.79; 0.86121
1286.80; 0.86957
1290.79; 0.88219
1294.79; 0.88853
1298.78; 0.89780
1302.77; 0.90676
1306.76; 0.91151
1310.75; 0.91878
1314.74; 0.92895
1318.72; 0.93707
1322.70; 0.94750
1326.68; 0.95801
1330.65; 0.96656
1334.63; 0.97596
1338.60; 0.98050
1342.57; 0.99578
1346.53; 1.00256
1350.50; 1.00726
1354.46; 1.02056
1358.42; 1.02782
1362.38; 1.03690
1366.34; 1.04362
1370.29; 1.04856
1374.24; 1.05823
1378.19; 1.06690
1382.14; 1.08349
1386.09; 1.08691
1390.03; 1.09469
1393.97; 1.10564
1397.91; 1.11077
1401.85; 1.11821
1405.78; 1.12767
1409.72; 1.13625
1413.65; 1.14827
1417.58; 1.15799
1421.51; 1.16287
1425.43; 1.18204
1429.36; 1.18422
1433.28; 1.18993
1437.20; 1.20626
1441.12; 1.20831
1445.03; 1.21932
1448.95; 1.22242
1452.86; 1.24246
1456.77; 1.24626
1460.68; 1.24917
1464.58; 1.25763
1468.49; 1.25770
1472.39; 1.27099
1476.29; 1.28536
1480.19; 1.28946
1484.09; 1.29103
1487.98; 1.30325
1491.88; 1.30601
1495.77; 1.31156
1499.66; 1.31607
1503.55; 1.32540
1507.43; 1.33467
1511.32; 1.34670
1515.20; 1.34081
1519.08; 1.35327
1522.96; 1.36069
1526.84; 1.36313
1530.71; 1.37966
1534.59; 1.38187
1538.46; 1.38489
1542.33; 1.38961
1546.20; 1.38941
1550.07; 1.41618
1553.94; 1.42372
1557.80; 1.42399
1561.66; 1.42213
1565.52; 1.43686
1569.38; 1.44730
1573.24; 1.44262
1577.10; 1.45273
1580.95; 1.45844
1584.80; 1.46942
1588.66; 1.45787
1592.51; 1.47763
1596.35; 1.47599
1600.20; 1.48663
1604.05; 1.49281
1607.89; 1.49828
1611.73; 1.50095
1615.57; 1.49933
1619.41; 1.51774
1623.25; 1.51950
1627.09; 1.52103
1630.92; 1.51404
1634.76; 1.53027
1638.59; 1.53452
1642.42; 1.53951
1646.25; 1.54946
1650.08; 1.54948
1653.90; 1.55043
1657.73; 1.56169
1661.55; 1.57552
1665.37; 1.58312
1669.20; 1.58801
1673.02; 1.60293
1676.83; 1.61314
1680.65; 1.62416
1684.47; 1.62613
1688.28; 1.62286
1692.09; 1.65828
1695.91; 1.63347
1699.72; 1.64305
1703.53; 1.63305
1707.33; 1.63904
1711.14; 1.61091
1714.95; 1.62616
1718.75; 1.65877
1722.55; 1.63350
1726.35; 1.63974
1730.16; 1.61227
1733.96; 1.62756
1737.75; 1.67482
1741.55; 1.70262

