Merged spectral data

 274.41; 0.00471
 275.01; 0.00640
 275.61; 0.00688
 276.22; 0.00627
 276.82; 0.00534
 277.42; 0.00758
 278.03; 0.00872
 278.63; 0.00937
 279.24; 0.00791
 279.84; 0.00732
 280.44; 0.00438
 281.05; 0.00363
 281.65; 0.00417
 282.25; 0.00783
 282.86; 0.00941
 283.46; 0.01005
 284.06; 0.01028
 284.67; 0.00922
 285.27; 0.00791
 285.87; 0.00892
 286.48; 0.00861
 287.08; 0.00946
 287.68; 0.00918
 288.29; 0.01103
 288.89; 0.01342
 289.49; 0.01349
 290.10; 0.01450
 290.70; 0.01259
 291.30; 0.01669
 291.91; 0.01577
 292.51; 0.01544
 293.11; 0.01250
 293.72; 0.01189
 294.32; 0.01419
 294.92; 0.01317
 295.52; 0.01500
 296.13; 0.01576
 296.73; 0.01590
 297.33; 0.01616
 297.94; 0.02004
 298.54; 0.02169
 299.14; 0.02392
 299.74; 0.02199
 300.35; 0.02266
 300.95; 0.02092
 301.55; 0.02256
 302.15; 0.02520
 302.76; 0.02675
 303.36; 0.02511
 303.96; 0.02329
 304.56; 0.02678
 305.17; 0.02714
 305.77; 0.03238
 306.37; 0.03370
 306.97; 0.04000
 307.58; 0.03700
 308.18; 0.02810
 308.78; 0.02535
 309.38; 0.02672
 309.98; 0.03273
 310.59; 0.03201
 311.19; 0.03246
 311.79; 0.03456
 312.39; 0.03881
 313.00; 0.03614
 313.60; 0.03852
 314.20; 0.03819
 314.80; 0.04618
 315.40; 0.04699
 316.01; 0.04430
 316.61; 0.04268
 317.21; 0.04428
 317.81; 0.04190
 318.41; 0.03958
 319.01; 0.03837
 319.62; 0.04196
 320.22; 0.04414
 320.82; 0.03981
 321.42; 0.04435
 322.02; 0.04580
 322.62; 0.05239
 323.23; 0.04928
 323.83; 0.05149
 324.43; 0.04489
 325.03; 0.04489
 325.63; 0.04092
 326.23; 0.05157
 326.83; 0.05661
 327.44; 0.05600
 328.04; 0.04941
 328.64; 0.04684
 329.24; 0.05217
 329.84; 0.04744
 330.44; 0.04508
 331.04; 0.04789
 331.64; 0.06171
 332.24; 0.06931
 332.85; 0.06031
 333.45; 0.05659
 334.05; 0.05108
 334.65; 0.05717
 335.25; 0.04878
 335.85; 0.04390
 336.45; 0.05268
 337.05; 0.05379
 337.65; 0.06661
 338.25; 0.06112
 338.85; 0.07408
 339.46; 0.06930
 340.06; 0.07398
 340.66; 0.06012
 341.26; 0.07222
 341.86; 0.08251
 342.46; 0.08032
 343.06; 0.07571
 343.66; 0.06492
 344.26; 0.07871
 344.86; 0.07866
 345.46; 0.07566
 346.06; 0.08133
 346.66; 0.07401
 347.26; 0.05884
 347.86; 0.05646
 348.46; 0.06293
 349.06; 0.08022
 349.66; 0.07547
 350.26; 0.07488
 350.86; 0.07385
 351.46; 0.07727
 352.06; 0.06578
 352.66; 0.08127
 353.26; 0.09149
 353.86; 0.09759
 354.46; 0.08249
 355.06; 0.06892
 355.66; 0.08208
 356.26; 0.08313
 356.86; 0.08551
 357.46; 0.07244
 358.06; 0.09066
 358.66; 0.11273
 359.26; 0.11501
 359.86; 0.10186
 360.46; 0.08080
 361.06; 0.08705
 361.66; 0.08704
 362.26; 0.09330
 362.86; 0.08989
 363.46; 0.07844
 364.06; 0.07870
 364.66; 0.08073
 365.26; 0.09775
 365.86; 0.07100
 366.46; 0.07300
 367.06; 0.07857
 367.66; 0.10391
 368.25; 0.10803
 368.85; 0.09343
 369.45; 0.08929
 370.05; 0.07732
 370.65; 0.08091
 371.25; 0.09194
 371.85; 0.08066
 372.45; 0.08240
 373.05; 0.08477
 373.65; 0.10473
 374.25; 0.10307
 374.84; 0.09208
 375.44; 0.08936
 376.04; 0.09285
 376.64; 0.08992
 377.24; 0.09452
 377.84; 0.10123
 378.44; 0.10587
 379.04; 0.09717
 379.63; 0.08641
 380.23; 0.08498
 380.83; 0.08924
 381.43; 0.09128
 382.03; 0.09988
 382.63; 0.08767
 383.23; 0.08706
 383.82; 0.09284
 384.42; 0.11210
 385.02; 0.11439
 385.62; 0.10112
 386.22; 0.08936
 386.82; 0.09611
 387.41; 0.11033
 388.01; 0.12399
 388.61; 0.12768
 389.21; 0.13073
 389.81; 0.13269
 390.41; 0.12940
 391.00; 0.13418
 391.60; 0.12437
 392.20; 0.11874
 392.80; 0.12057
 393.40; 0.12973
 393.99; 0.13794
 394.59; 0.13841
 395.19; 0.13299
 395.79; 0.13052
 396.39; 0.13933
 396.98; 0.14324
 397.58; 0.14596
 398.18; 0.13845
 398.78; 0.14153
 399.37; 0.14464
 399.97; 0.14394
 400.57; 0.14723
 401.17; 0.15107
 401.76; 0.15528
 402.36; 0.15223
 402.96; 0.15603
 403.56; 0.16351
 404.15; 0.16372
 404.75; 0.16072
 405.35; 0.15596
 405.95; 0.16031
 406.54; 0.16624
 407.14; 0.17025
 407.74; 0.17978
 408.33; 0.18497
 408.93; 0.19121
 409.53; 0.19126
 410.13; 0.18110
 410.72; 0.18022
 411.32; 0.17981
 411.92; 0.18495
 412.51; 0.19024
 413.11; 0.19472
 413.71; 0.20497
 414.30; 0.20896
 414.90; 0.21065
 415.50; 0.21319
 416.09; 0.21831
 416.69; 0.22285
 417.29; 0.22367
 417.88; 0.22474
 418.48; 0.22272
 419.08; 0.23111
 419.67; 0.23422
 420.27; 0.24241
 420.87; 0.23499
 421.46; 0.24079
 422.06; 0.24528
 422.66; 0.26365
 423.25; 0.26788
 423.85; 0.27037
 424.45; 0.26650
 425.04; 0.26547
 425.64; 0.26634
 426.23; 0.27255
 426.83; 0.27755
 427.43; 0.28812
 428.02; 0.28995
 428.62; 0.29882
 429.22; 0.29751
 429.81; 0.29938
 430.41; 0.30149
 431.00; 0.30897
 431.60; 0.31506
 432.20; 0.31773
 432.79; 0.31903
 433.39; 0.32109
 433.98; 0.32507
 434.58; 0.33243
 435.17; 0.34122
 435.77; 0.34592
 436.37; 0.35069
 436.96; 0.35172
 437.56; 0.35916
 438.15; 0.35908
 438.75; 0.36368
 439.34; 0.36836
 439.94; 0.37716
 440.53; 0.38350
 441.13; 0.38465
 441.73; 0.38615
 442.32; 0.39009
 442.92; 0.39656
 443.51; 0.40196
 444.11; 0.40827
 444.70; 0.41692
 445.30; 0.42798
 445.89; 0.43140
 446.49; 0.43428
 447.08; 0.43449
 447.68; 0.43595
 448.27; 0.43915
 448.87; 0.44766
 449.46; 0.45726
 450.06; 0.46368
 450.65; 0.47073
 451.25; 0.47636
 451.84; 0.48564
 452.44; 0.48407
 453.03; 0.49114
 453.63; 0.49698
 454.22; 0.51154
 454.82; 0.51653
 455.41; 0.52284
 456.00; 0.52910
 456.60; 0.53504
 457.19; 0.54297
 457.79; 0.54737
 458.38; 0.55004
 458.98; 0.55184
 459.57; 0.56019
 460.17; 0.57219
 460.76; 0.58611
 461.35; 0.59188
 461.95; 0.60271
 462.54; 0.60572
 463.14; 0.61165
 463.73; 0.61629
 464.33; 0.62417
 464.92; 0.63477
 465.51; 0.64091
 466.11; 0.65454
 466.70; 0.65868
 467.30; 0.66834
 467.89; 0.66781
 468.48; 0.67495
 469.08; 0.68085
 469.67; 0.68699
 470.26; 0.69566
 470.86; 0.70482
 471.45; 0.71519
 472.05; 0.72312
 472.64; 0.72772
 473.23; 0.73601
 473.83; 0.74303
 474.42; 0.75224
 475.01; 0.75850
 475.61; 0.77042
 476.20; 0.77859
 476.79; 0.79109
 477.39; 0.79780
 477.98; 0.80843
 478.57; 0.81334
 479.17; 0.82400
 479.76; 0.83056
 480.35; 0.83813
 480.95; 0.84676
 481.54; 0.85908
 482.13; 0.87039
 482.73; 0.87733
 483.32; 0.88362
 483.91; 0.89013
 484.51; 0.90081
 485.10; 0.91137
 485.69; 0.92290
 486.29; 0.93120
 486.88; 0.94449
 487.47; 0.95497
 488.06; 0.96372
 488.66; 0.96894
 489.25; 0.97582
 489.84; 0.98628
 490.43; 0.99613
 491.03; 1.00868
 491.62; 1.01823
 492.21; 1.03088
 492.80; 1.04063
 493.40; 1.04979
 493.99; 1.06085
 494.58; 1.07147
 495.17; 1.08285
 495.77; 1.09160
 496.36; 1.10239
 496.95; 1.11516
 497.54; 1.12699
 498.14; 1.13826
 498.73; 1.14984
 499.32; 1.16114
 499.91; 1.17258
 500.51; 1.18026
 501.10; 1.19028
 501.69; 1.20203
 502.28; 1.21535
 502.87; 1.22704
 503.47; 1.23824
 504.06; 1.25146
 504.65; 1.26381
 505.24; 1.27434
 505.83; 1.28536
 506.42; 1.29782
 507.02; 1.31298
 507.61; 1.32566
 508.20; 1.33638
 508.79; 1.34898
 509.38; 1.36050
 509.97; 1.37467
 510.57; 1.38688
 511.16; 1.40181
 511.75; 1.41495
 512.34; 1.42732
 512.93; 1.44156
 513.52; 1.45585
 514.11; 1.47055
 514.71; 1.48125
 515.30; 1.48881
 515.89; 1.50167
 516.48; 1.51525
 517.07; 1.53250
 517.66; 1.54224
 518.25; 1.55421
 518.84; 1.56755
 519.43; 1.58260
 520.03; 1.59664
 520.62; 1.60833
 521.21; 1.62273
 521.80; 1.63545
 522.39; 1.64836
 522.98; 1.66438
 523.57; 1.68045
 524.16; 1.69647
 524.75; 1.70581
 525.34; 1.71971
 525.93; 1.73480
 526.52; 1.75052
 527.12; 1.76380
 527.71; 1.77953
 528.30; 1.79452
 528.89; 1.81106
 529.48; 1.82307
 530.07; 1.83909
 530.66; 1.84982
 531.25; 1.86743
 531.84; 1.88254
 532.43; 1.90233
 533.02; 1.91915
 533.61; 1.93641
 534.20; 1.95103
 534.79; 1.96341
 535.38; 1.97742
 535.97; 1.98972
 536.56; 2.00652
 537.15; 2.02134
 537.74; 2.03865
 538.33; 2.05040
 538.92; 2.06619
 539.51; 2.08375
 540.10; 2.10356
 540.69; 2.11997
 541.28; 2.13886
 541.87; 2.15317
 542.46; 2.17076
 543.05; 2.18619
 543.64; 2.21113
 544.23; 2.23063
 544.82; 2.24960
 545.41; 2.25822
 546.00; 2.27204
 546.59; 2.28667
 547.17; 2.30786
 547.76; 2.32930
 548.35; 2.34857
 548.94; 2.36833
 549.53; 2.38456
 550.12; 2.40367
 550.71; 2.42279
 551.30; 2.43766
 551.89; 2.45381
 552.48; 2.46388
 553.07; 2.48497
 553.66; 2.50328
 554.24; 2.52556
 554.83; 2.54141
 555.42; 2.56142
 556.01; 2.57996
 556.60; 2.60018
 557.19; 2.61909
 557.78; 2.63999
 558.37; 2.66216
 558.96; 2.68131
 559.54; 2.69746
 560.13; 2.71261
 560.72; 2.72826
 561.31; 2.74786
 561.90; 2.76823
 562.49; 2.78753
 563.08; 2.80923
 563.66; 2.82720
 564.25; 2.84911
 564.84; 2.86808
 565.43; 2.89152
 566.02; 2.90814
 566.61; 2.92710
 567.19; 2.94682
 567.78; 2.96781
 568.37; 2.98678
 568.96; 3.00588
 569.55; 3.02843
 570.13; 3.05157
 570.72; 3.07460
 571.31; 3.09659
 571.90; 3.11806
 572.49; 3.13990
 573.07; 3.15658
 573.66; 3.17613
 574.25; 3.19680
 574.84; 3.22423
 575.43; 3.24822
 576.01; 3.26736
 576.60; 3.28549
 577.19; 3.30271
 577.78; 3.32317
 578.36; 3.34383
 578.95; 3.37103
 579.54; 3.39198
 580.13; 3.41674
 580.71; 3.43793
 581.30; 3.46526
 581.89; 3.48397
 582.48; 3.50915
 583.06; 3.53158
 583.65; 3.55880
 584.24; 3.57929
 584.82; 3.59951
 585.41; 3.62049
 586.00; 3.64057
 586.59; 3.66607
 587.17; 3.68708
 587.76; 3.71319
 588.35; 3.73483
 588.93; 3.75714
 589.52; 3.78230
 590.11; 3.80503
 590.69; 3.83363
 591.28; 3.85606
 591.87; 3.87553
 592.45; 3.89592
 593.04; 3.91766
 593.63; 3.94770
 594.21; 3.97638
 594.80; 4.00478
 595.39; 4.02506
 595.97; 4.04836
 596.56; 4.07541
 597.15; 4.10218
 597.73; 4.12487
 598.32; 4.14614
 598.91; 4.17274
 599.49; 4.20418
 600.08; 4.22869
 600.66; 4.25640
 601.25; 4.27426
 601.84; 4.29724
 602.42; 4.31924
 603.01; 4.34792
 603.60; 4.37274
 604.18; 4.39123
 604.77; 4.41205
 605.35; 4.43878
 605.94; 4.47013
 606.53; 4.50173
 607.11; 4.53037
 607.70; 4.55816
 608.28; 4.58473
 608.87; 4.61115
 609.45; 4.64472
 610.04; 4.67155
 610.63; 4.69745
 611.21; 4.72098
 611.80; 4.74607
 612.38; 4.77054
 612.97; 4.79481
 613.55; 4.81743
 614.14; 4.84132
 614.72; 4.86689
 615.31; 4.89624
 615.89; 4.92717
 616.48; 4.95591
 617.06; 4.97724
 617.65; 5.01019
 618.23; 5.03532
 618.82; 5.07146
 619.40; 5.09334
 619.99; 5.12473
 620.57; 5.15184
 621.16; 5.16997
 621.74; 5.19226
 622.33; 5.21485
 622.91; 5.24815
 623.50; 5.27951
 624.08; 5.30521
 624.67; 5.33880
 625.25; 5.36761
 625.84; 5.39662
 626.42; 5.42299
 627.01; 5.44691
 627.59; 5.47898
 628.18; 5.50527
 628.76; 5.53391
 629.35; 5.55811
 629.93; 5.58383
 630.51; 5.61192
 631.10; 5.64237
 631.68; 5.66878
 632.27; 5.69555
 632.85; 5.72287
 633.44; 5.75434
 634.02; 5.77923
 634.60; 5.80913
 635.19; 5.83819
 635.77; 5.87821
 636.36; 5.91411
 636.94; 5.94477
 637.52; 5.97005
 638.11; 5.99215
 638.69; 6.01738
 639.28; 6.04317
 639.86; 6.07632
 640.44; 6.10769
 641.03; 6.14428
 641.61; 6.17739
 642.19; 6.20670
 642.78; 6.22775
 643.36; 6.24895
 643.94; 6.27031
 644.53; 6.29944
 645.11; 6.33022
 645.70; 6.36804
 646.28; 6.40263
 646.86; 6.43883
 647.45; 6.47239
 648.03; 6.50487
 648.61; 6.52806
 649.19; 6.56764
 649.78; 6.59208
 650.36; 6.62109
 650.94; 6.63958
 651.53; 6.68669
 652.11; 6.72654
 652.69; 6.75780
 653.28; 6.77368
 653.86; 6.80491
 654.44; 6.84620
 655.02; 6.88726
 655.61; 6.91746
 656.19; 6.94388
 656.77; 6.96295
 657.36; 6.99400
 657.94; 7.03257
 658.52; 7.07337
 659.10; 7.10016
 659.69; 7.13824
 660.27; 7.17080
 660.85; 7.20861
 661.43; 7.22848
 662.02; 7.25318
 662.60; 7.26958
 663.18; 7.30980
 663.76; 7.36238
 664.35; 7.42447
 664.93; 7.45996
 665.51; 7.49004
 666.09; 7.53387
 666.67; 7.57146
 667.26; 7.61739
 667.84; 7.64316
 668.42; 7.67358
 669.00; 7.69127
 669.58; 7.71688
 670.17; 7.73338
 670.75; 7.76309
 671.33; 7.78822
 671.91; 7.82305
 672.49; 7.85255
 673.07; 7.89090
 673.66; 7.93530
 674.24; 7.98729
 674.82; 8.02978
 675.40; 8.06777
 675.98; 8.09560
 676.56; 8.11736
 677.15; 8.15232
 677.73; 8.17462
 678.31; 8.20616
 678.89; 8.22801
 679.47; 8.26335
 680.05; 8.29703
 680.63; 8.33610
 681.21; 8.35878
 681.80; 8.38251
 682.38; 8.40825
 682.96; 8.44740
 683.54; 8.48099
 684.12; 8.51230
 684.70; 8.54795
 685.28; 8.57806
 685.86; 8.61182
 686.44; 8.65036
 687.02; 8.69399
 687.60; 8.73026
 688.19; 8.76222
 688.77; 8.80199
 689.35; 8.83718
 689.93; 8.85157
 690.51; 8.87113
 691.09; 8.89997
 691.67; 8.95286
 692.25; 8.99949
 692.83; 9.03516
 693.41; 9.06886
 693.99; 9.09795
 694.57; 9.13726
 695.15; 9.16901
 695.73; 9.19586
 696.31; 9.21085
 696.89; 9.24133
 697.47; 9.27856
 698.05; 9.32776
 698.63; 9.36525
 699.21; 9.41116
 699.79; 9.45469
 700.37; 9.49499
 700.95; 9.54357
 701.53; 9.58659
 702.11; 9.60931
 702.69; 9.62312
 703.27; 9.64076
 703.85; 9.69832
 704.43; 9.73671
 705.01; 9.77632
 705.59; 9.80728
 706.17; 9.85988
 706.75; 9.89891
 707.33; 9.93009
 707.91; 9.95633
 708.49; 9.99366
 709.07;10.02795
 709.64;10.04053
 710.22;10.05870
 710.80;10.07639
 711.38;10.10973
 711.96;10.15921
 712.54;10.21245
 713.12;10.25181
 713.70;10.27013
 714.28;10.30844
 714.86;10.35263
 715.44;10.39190
 716.01;10.39648
 716.59;10.43109
 717.17;10.47375
 717.75;10.53472
 718.33;10.57952
 718.91;10.61192
 719.49;10.64087
 720.07;10.68879
 720.64;10.71816
 721.22;10.73700
 721.80;10.76013
 722.38;10.81775
 722.96;10.87973
 723.54;10.91883
 724.12;10.94336
 724.69;10.98245
 725.27;11.00250
 725.85;11.00713
 726.43;11.02735
 727.01;11.08113
 727.58;11.16050
 728.16;11.20247
 728.74;11.24960
 729.32;11.28026
 729.90;11.31742
 730.47;11.35037
 731.05;11.39405
 731.63;11.43934
 732.21;11.44866
 732.79;11.46670
 733.36;11.47531
 733.94;11.52025
 734.52;11.56145
 735.10;11.61526
 735.67;11.65733
 736.25;11.70715
 736.83;11.76361
 737.41;11.80654
 737.98;11.82607
 738.56;11.84741
 739.14;11.88896
 739.72;11.94292
 740.29;11.98382
 740.87;12.00578
 741.45;12.02294
 742.02;12.04640
 742.60;12.08634
 743.18;12.12817
 743.76;12.16308
 744.33;12.18225
 744.91;12.22246
 745.49;12.27182
 746.06;12.31862
 746.64;12.34341
 747.22;12.36298
 747.79;12.39325
 748.37;12.41666
 748.95;12.45926
 749.52;12.49356
 750.10;12.55909
 750.68;12.59270
 751.25;12.65977
 751.83;12.69155
 752.41;12.73447
 752.98;12.76639
 753.56;12.78928
 754.14;12.83616
 754.71;12.84899
 755.29;12.91429
 755.86;12.95718
 756.44;13.01268
 757.02;13.05179
 757.59;13.09885
 758.17;13.13771
 758.75;13.14702
 759.32;13.15844
 759.90;13.20441
 760.47;13.25651
 761.05;13.29286
 761.62;13.31661
 762.20;13.35725
 762.78;13.40515
 763.35;13.43482
 763.93;13.45290
 764.50;13.48676
 765.08;13.52488
 765.65;13.59767
 766.23;13.62545
 766.81;13.66420
 767.38;13.70869
 767.96;13.77539
 768.53;13.85899
 769.11;13.89206
 769.68;13.92007
 770.26;13.90481
 770.83;13.92123
 771.41;13.95680
 771.98;14.02996
 772.56;14.07860
 773.13;14.12609
 773.71;14.18182
 774.28;14.21937
 774.86;14.23790
 775.43;14.25434
 776.01;14.29463
 776.58;14.33548
 777.16;14.37650
 777.73;14.41943
 778.31;14.48171
 778.88;14.54172
 779.46;14.57340
 780.03;14.59038
 780.61;14.58809
 781.18;14.62251
 781.75;14.67772
 782.33;14.72222
 782.90;14.75693
 783.48;14.79825
 784.05;14.84986
 784.63;14.90984
 785.20;14.95151
 785.77;14.99628
 786.35;15.02104
 786.92;15.09446
 787.50;15.14115
 788.07;15.17874
 788.64;15.16348
 789.22;15.20464
 789.79;15.27228
 790.37;15.31606
 790.94;15.32898
 791.51;15.34720
 792.09;15.38073
 792.66;15.42033
 793.23;15.46301
 793.81;15.47706
 794.38;15.48681
 794.96;15.49389
 795.53;15.56385
 796.10;15.65015
 796.68;15.72973
 797.25;15.79237
 797.82;15.82198
 798.40;15.83591
 798.97;15.84748
 799.54;15.86818
 800.12;15.89284
 800.69;15.92838
 801.26;15.94126
 801.83;16.00783
 802.41;16.01051
 802.98;16.06720
 803.55;16.08833
 804.13;16.17762
 804.70;16.22051
 805.27;16.26908
 805.84;16.32389
 806.42;16.33791
 806.99;16.37913
 807.56;16.41198
 808.14;16.50616
 808.71;16.52161
 809.28;16.55128
 809.85;16.53967
 810.43;16.59643
 811.00;16.64772
 811.57;16.74298
 812.14;16.78364
 812.71;16.82118
 813.29;16.88969
 813.86;16.93151
 814.43;16.95370
 815.00;16.95347
 815.58;17.00420
 816.15;17.03514
 816.72;17.04972
 817.29;17.10326
 817.86;17.16693
 818.44;17.20790
 819.01;17.21162
 819.58;17.23873
 820.15;17.28516
 820.72;17.34924
 821.29;17.37365
 821.87;17.45709
 822.44;17.49887
 823.01;17.52095
 823.58;17.51424
 824.15;17.51626
 824.72;17.58173
 825.29;17.62519
 825.87;17.68315
 826.44;17.71924
 827.01;17.78501
 827.58;17.85920
 828.15;17.91816
 828.72;17.89841
 829.29;17.92635
 829.86;17.95210
 830.44;18.01579
 831.01;18.02948
 831.58;18.05414
 832.15;18.08644
 832.72;18.14168
 833.29;18.23534
 833.86;18.28963
 834.43;18.31937
 835.00;18.31104
 835.57;18.33987
 836.14;18.35490
 836.71;18.35500
 837.28;18.35814
 837.86;18.40116
 838.43;18.47274
 839.00;18.54024
 839.57;18.54569
 840.14;18.59207
 840.71;18.65574
 841.28;18.69844
 841.85;18.71568
 842.42;18.69142
 842.99;18.71208
 843.56;18.75165
 844.13;18.84077
 844.70;18.90760
 845.27;18.94820
 845.84;18.95725
 846.41;18.99804
 846.98;19.02086
 847.55;19.08308
 848.12;19.17343
 848.69;19.23715
 849.26;19.29156
 849.83;19.26480
 850.40;19.24073
 850.97;19.20698
 851.53;19.24667
 852.10;19.34380
 852.67;19.39279
 853.24;19.41511
 853.81;19.40715
 854.38;19.49618
 854.95;19.56781
 855.52;19.66180
 856.09;19.70827
 856.50;19.69453
 856.66;19.11666
 857.23; 8.04632
 857.80;-17.12885
 858.37;-56.35222
 858.93;-109.67863
 859.50;-177.13390
 860.07;-258.64059
 860.64;-354.25829
 860.80;-382.58720
 861.21;-378.77013
 861.78;-361.28749
 862.35;-329.62462
 862.92;-283.81043
 863.48;-223.85760
 864.05;-149.80359
 864.62;-61.64117
 865.08;20.31847
 865.19;20.32040
 865.76;20.29147
 866.33;20.25587
 866.90;20.20670
 867.46;20.26105
 868.03;20.37395
 868.60;20.44814
 869.17;20.46058
 869.37;20.44874
 869.74;20.45766
 870.31;20.48241
 870.87;20.52605
 871.44;20.49385
 872.01;20.50537
 872.58;20.49039
 873.15;20.55927
 873.65;20.62437
 873.71;20.63271
 874.28;20.67154
 874.85;20.73972
 875.42;20.80615
 875.98;20.88694
 876.55;20.94010
 877.12;20.96535
 877.69;20.99713
 877.93;21.01963
 878.25;21.04058
 878.82;21.09423
 879.39;21.16102
 879.96;21.17750
 880.52;21.22799
 881.09;21.26005
 881.66;21.29504
 882.20;21.32877
 882.23;21.33016
 882.79;21.41419
 883.36;21.49754
 883.93;21.49621
 884.50;21.44151
 885.06;21.49284
 885.63;21.60353
 886.20;21.71066
 886.47;21.71947
 886.76;21.72860
 887.33;21.71511
 887.90;21.70565
 888.46;21.69860
 889.03;21.67923
 889.60;21.70079
 890.16;21.73675
 890.73;21.84019
 890.74;21.84138
 891.30;21.90929
 891.86;21.94352
 892.43;21.96332
 893.00;22.04076
 893.56;22.06795
 894.13;22.07492
 894.70;22.07297
 895.01;22.09331
 895.26;22.11039
 895.83;22.16936
 896.39;22.23339
 896.96;22.30495
 897.53;22.32548
 898.09;22.33790
 898.66;22.36098
 899.22;22.42819
 899.27;22.43456
 899.79;22.49532
 900.36;22.54706
 900.92;22.57699
 901.49;22.59636
 902.05;22.63438
 902.62;22.74186
 903.19;22.78474
 903.53;22.79812
 903.75;22.80629
 904.32;22.79117
 904.88;22.80784
 905.45;22.86375
 906.01;22.86345
 906.58;22.90266
 907.14;22.95281
 907.71;23.02929
 907.78;23.03914
 908.28;23.11542
 908.84;23.09979
 909.41;23.07672
 909.97;23.04964
 910.54;23.12161
 911.10;23.18956
 911.67;23.26099
 912.04;23.29683
 912.23;23.31153
 912.80;23.37835
 913.36;23.40281
 913.93;23.42815
 914.49;23.43729
 915.06;23.51273
 915.62;23.55738
 916.19;23.61669
 916.28;23.61442
 916.75;23.60687
 917.31;23.56137
 917.88;23.54443
 918.44;23.54465
 919.01;23.65186
 919.57;23.68691
 920.14;23.73989
 920.53;23.77868
 920.70;23.79467
 921.27;23.82737
 921.83;23.86932
 922.39;23.89917
 922.96;23.95039
 923.52;23.97056
 924.09;23.99709
 924.65;24.01551
 924.77;24.01429
 925.22;24.00797
 925.78;24.03073
 926.34;24.06096
 926.91;24.11583
 927.47;24.15895
 928.03;24.17721
 928.60;24.23487
 929.01;24.26975
 929.16;24.28323
 929.73;24.40097
 930.29;24.48364
 930.85;24.48298
 931.42;24.46353
 931.98;24.45773
 932.54;24.47923
 933.11;24.48380
 933.25;24.47027
 933.67;24.43281
 934.23;24.37459
 934.80;24.38229
 935.36;24.41541
 935.92;24.51528
 936.49;24.54783
 937.05;24.61542
 937.48;24.62116
 937.61;24.62216
 938.18;24.63360
 938.74;24.66920
 939.30;24.72324
 939.87;24.80413
 940.43;24.84252
 940.99;24.86061
 941.55;24.86305
 941.71;24.87156
 942.12;24.89394
 942.68;24.93525
 943.24;24.93574
 943.80;24.92563
 944.37;24.93633
 944.93;25.06611
 945.49;25.18526
 945.94;25.24685
 946.05;25.26281
 946.62;25.25346
 947.18;25.22905
 947.74;25.28731
 948.30;25.30359
 948.87;25.36129
 949.43;25.34568
 949.99;25.36215
 950.16;25.37021
 950.55;25.38832
 951.11;25.46303
 951.68;25.54504
 952.24;25.54142
 952.80;25.50312
 953.36;25.51002
 953.92;25.58642
 954.38;25.65948
 954.49;25.67584
 955.05;25.71141
 955.61;25.70602
 956.17;25.67980
 956.73;25.68384
 957.29;25.70527
 957.86;25.76498
 958.42;25.81625
 958.60;25.83346
 958.98;25.86887
 959.54;25.89112
 960.10;25.89554
 960.66;25.91923
 961.22;25.91451
 961.79;26.00897
 962.35;26.06857
 962.81;26.12090
 962.91;26.13163
 963.47;26.09607
 964.03;26.10990
 964.59;26.11863
 965.15;26.14334
 965.71;26.15035
 966.27;26.18881
 966.83;26.23406
 967.03;26.24378
 967.40;26.25989
 967.96;26.35242
 968.52;26.38774
 969.08;26.42144
 969.64;26.44026
 970.20;26.47554
 970.76;26.49312
 971.23;26.51127
 971.32;26.51560
 971.88;26.57382
 972.44;26.61799
 973.00;26.59844
 973.56;26.61437
 974.12;26.63496
 974.68;26.65229
 975.24;26.63131
 975.44;26.65104
 975.80;26.68411
 976.36;26.74266
 976.92;26.81967
 977.48;26.81867
 978.04;26.81611
 978.60;26.83774
 979.16;26.84209
 979.64;26.86393
 979.72;26.86707
 980.28;26.86652
 980.84;26.90382
 981.40;26.93017
 981.96;26.98801
 982.52;26.99191
 983.08;26.99207
 983.64;26.97149
 983.84;26.97283
 984.20;26.97857
 984.76;27.03352
 985.32;27.07772
 985.88;27.14911
 986.44;27.19725
 987.00;27.14229
 987.55;27.17259
 988.04;27.19912
 988.11;27.20353
 988.67;27.32885
 989.23;27.39412
 989.79;27.42485
 990.35;27.41427
 990.91;27.37863
 991.47;27.37860
 992.03;27.44161
 992.23;27.47140
 992.59;27.52285
 993.14;27.64913
 993.70;27.71654
 994.26;27.78457
 994.82;27.72860
 995.38;27.70364
 995.94;27.66889
 996.42;27.68245
 996.50;27.68475
 997.05;27.67607
 997.61;27.66807
 998.17;27.63620
 998.73;27.68480
 999.29;27.74900
 999.85;27.80702
1000.40;27.79246
1000.61;27.79908
1000.96;27.80723
1001.52;27.83435
1002.08;27.88262
1002.64;27.90243
1003.19;27.90441
1003.75;27.91601
1004.31;27.94775
1004.79;27.97469
1004.87;27.97931
1005.43;28.01387
1005.98;28.00002
1006.54;28.04963
1007.10;28.08827
1007.66;28.13820
1008.21;28.16819
1008.77;28.17358
1008.97;28.17410
1009.33;28.17502
1009.89;28.17128
1010.44;28.19131
1011.00;28.19933
1011.56;28.20356
1012.12;28.23490
1012.67;28.29103
1013.15;28.31539
1013.23;28.31980
1013.79;28.34203
1014.34;28.34174
1014.90;28.37346
1015.46;28.38453
1016.01;28.39855
1016.57;28.44250
1017.13;28.48661
1017.32;28.49910
1017.69;28.52195
1018.24;28.56332
1018.80;28.57459
1019.36;28.65375
1019.91;28.69084
1020.47;28.77695
1021.03;28.73504
1021.50;28.73539
1021.58;28.73493
1022.14;28.70593
1022.69;28.73306
1023.25;28.71661
1023.81;28.67813
1024.36;28.71218
1024.92;28.77560
1025.48;28.90305
1025.66;28.90014
1026.03;28.89400
1026.59;28.90106
1027.14;28.85173
1027.70;28.91725
1028.26;28.91387
1028.81;28.94804
1029.37;28.87559
1029.83;28.87789
1029.92;28.87923
1030.48;28.88292
1031.03;28.96263
1031.59;28.96638
1032.15;28.99177
1032.70;28.99847
1033.26;29.03111
1033.81;29.07326
1033.99;29.08742
1034.37;29.11869
1034.92;29.14673
1035.48;29.13327
1036.03;29.13036
1036.59;29.15633
1037.14;29.18824
1037.70;29.22737
1038.15;29.22586
1038.26;29.22406
1038.81;29.22905
1039.37;29.22549
1039.92;29.27599
1040.48;29.31309
1041.03;29.35214
1041.58;29.41295
1042.14;29.43562
1042.31;29.43406
1042.69;29.43732
1043.25;29.44980
1043.80;29.45670
1044.36;29.53452
1044.91;29.58320
1045.47;29.62271
1046.02;29.60521
1046.47;29.58336
1046.58;29.57526
1047.13;29.53438
1047.69;29.51192
1048.24;29.52337
1048.79;29.60426
1049.35;29.65129
1049.90;29.65230
1050.46;29.63434
1050.62;29.65392
1051.01;29.70846
1051.56;29.70189
1052.12;29.75466
1052.67;29.76705
1053.23;29.84940
1053.78;29.85101
1054.33;29.83376
1054.77;29.85545
1054.89;29.85962
1055.44;29.88128
1056.00;29.88672
1056.55;29.87002
1057.10;29.91349
1057.66;29.94221
1058.21;29.93816
1058.76;29.94905
1058.91;29.94457
1059.32;29.93518
1059.87;29.95238
1060.42;29.93356
1060.98;29.95643
1061.53;29.98156
1062.08;29.94888
1062.64;29.98844
1063.05;29.98831
1063.19;29.99009
1063.74;30.01900
1064.29;30.04611
1064.85;30.13832
1065.40;30.18588
1065.95;30.23632
1066.51;30.21290
1067.06;30.24965
1067.19;30.25648
1067.61;30.26554
1068.16;30.27177
1068.72;30.29349
1069.27;30.28334
1069.82;30.26245
1070.37;30.26281
1070.93;30.26440
1071.33;30.30480
1071.48;30.32185
1072.03;30.33556
1072.58;30.36792
1073.14;30.40412
1073.69;30.43012
1074.24;30.42855
1074.79;30.42852
1075.34;30.43185
1075.47;30.43846
1075.90;30.46315
1076.45;30.50810
1077.00;30.53282
1077.55;30.57419
1078.10;30.55389
1078.66;30.59673
1079.21;30.64728
1079.60;30.68199
1079.76;30.69822
1080.31;30.71736
1080.86;30.65331
1081.41;30.67402
1081.97;30.68553
1082.52;30.72900
1083.07;30.78182
1083.62;30.83750
1083.73;30.84470
1084.17;30.85686
1084.72;30.82495
1085.27;30.84917
1085.82;30.90099
1086.38;30.94675
1086.93;30.95535
1087.48;30.95847
1087.85;30.96512
1088.03;30.97193
1088.58;31.00900
1089.13;31.02509
1089.68;31.03296
1090.23;31.03016
1090.78;31.05472
1091.33;31.06767
1091.88;31.07720
1091.98;31.07920
1092.43;31.08742
1092.99;31.11587
1093.54;31.15295
1094.09;31.18024
1094.64;31.19264
1095.19;31.21161
1095.74;31.22950
1096.10;31.24392
1096.29;31.25188
1096.84;31.27234
1097.39;31.29005
1097.94;31.30874
1098.49;31.32859
1099.04;31.35129
1099.59;31.37301
1100.14;31.39493
1100.21;31.39697
1104.33;31.50970
1108.44;31.57359
1112.55;31.67338
1116.66;31.78958
1120.76;31.85422
1124.86;31.98329
1128.96;32.10179
1133.06;32.15840
1137.15;32.24259
1141.24;32.27175
1145.33;32.44189
1149.41;32.58710
1153.49;32.65983
1157.57;32.65772
1161.65;32.64084
1165.73;32.73646
1169.80;32.83341
1173.87;32.87941
1177.93;33.00646
1182.00;33.04876
1186.06;33.11020
1190.12;33.14684
1194.18;33.25885
1198.23;33.31398
1202.28;33.38776
1206.33;33.36007
1210.38;33.38131
1214.42;33.53548
1218.46;33.52364
1222.50;33.64285
1226.54;33.65648
1230.57;33.62248
1234.60;33.63125
1238.63;33.72533
1242.66;33.69417
1246.68;33.76967
1250.70;33.80698
1254.72;33.82132
1258.74;33.86403
1262.76;33.91403
1266.77;33.89254
1270.78;33.89855
1274.79;33.92204
1278.79;34.00404
1282.79;34.02309
1286.80;34.04851
1290.79;34.04566
1294.79;34.09862
1298.78;34.06717
1302.77;34.00162
1306.76;34.11715
1310.75;34.11070
1314.74;34.06082
1318.72;33.94489
1322.70;34.04212
1326.68;34.02317
1330.65;34.13943
1334.63;34.02268
1338.60;33.98774
1342.57;33.94647
1346.53;33.98207
1350.50;34.00238
1354.46;33.93940
1358.42;33.94429
1362.38;33.98077
1366.34;33.99304
1370.29;33.91588
1374.24;33.92175
1378.19;33.95130
1382.14;33.96250
1386.09;33.79889
1390.03;33.77086
1393.97;33.86140
1397.91;33.78194
1401.85;33.67932
1405.78;33.73820
1409.72;33.64080
1413.65;33.65973
1417.58;33.70408
1421.51;33.66522
1425.43;33.58637
1429.36;33.63431
1433.28;33.53388
1437.20;33.64082
1441.12;33.47550
1445.03;33.44607
1448.95;33.43268
1452.86;33.25261
1456.77;33.25783
1460.68;33.24175
1464.58;33.20534
1468.49;33.18900
1472.39;33.12900
1476.29;33.17589
1480.19;33.01874
1484.09;33.00219
1487.98;32.85864
1491.88;32.82863
1495.77;32.86793
1499.66;32.80485
1503.55;32.71537
1507.43;32.67664
1511.32;32.60652
1515.20;32.52336
1519.08;32.50306
1522.96;32.46575
1526.84;32.26900
1530.71;32.25529
1534.59;32.18894
1538.46;32.23905
1542.33;32.13594
1546.20;32.15020
1550.07;32.06060
1553.94;31.90134
1557.80;31.77513
1561.66;31.81649
1565.52;31.79266
1569.38;31.71861
1573.24;31.64709
1577.10;31.48355
1580.95;31.47859
1584.80;31.46987
1588.66;31.26843
1592.51;31.28840
1596.35;31.24477
1600.20;31.31322
1604.05;31.28901
1607.89;31.18435
1611.73;31.10973
1615.57;31.09411
1619.41;30.89310
1623.25;30.83649
1627.09;30.76733
1630.92;30.63727
1634.76;30.58904
1638.59;30.56864
1642.42;30.56367
1646.25;30.46070
1650.08;30.39188
1653.90;30.31130
1657.73;30.26682
1661.55;30.25805
1665.37;30.17896
1669.20;30.10922
1673.02;30.10807
1676.83;30.04857
1680.65;30.03553
1684.47;30.02087
1688.28;29.91980
1692.09;29.74172
1695.91;29.74699
1699.72;29.68219
1703.53;29.39443
1707.33;29.38296
1711.14;29.32473
1714.95;29.22105
1718.75;29.10119
1722.55;29.11920
1726.35;29.02585
1730.16;29.08374
1733.96;28.76924
1737.75;28.53590
1741.55;28.48236

